Time(s)	CH00_(V)	CH01_(V)	CH02_(V)	CH03_(V)	CH04_(V)	CH05_(V)	CH06_(V)	CH07_(V)	CH08_(V)	CH09_(V)	CH10_(V)	CH11_(V)	CH12_(V)	CH13_(V)	CH14_(V)	CH15_(V)	
0.000	-0.001785	-1.742565	2.227283	1.190448	2.611902	1.506798	-0.211902	0.127428	
0.994	-0.001511	-1.742595	2.228000	1.190280	2.612040	1.506279	-0.211795	0.126711	
2.001	-0.000977	-1.742336	2.227985	1.190097	2.612116	1.506248	-0.211551	0.126970	
3.019	-0.001617	-1.742458	2.228000	1.190493	2.612177	1.507149	-0.212528	0.127291	
4.019	-0.002579	-1.742397	2.227832	1.190432	2.611872	1.507362	-0.212757	0.127230	
5.011	-0.002014	-1.742244	2.227847	1.190463	2.611750	1.507133	-0.212650	0.127123	
6.011	-0.000793	-1.742595	2.228214	1.190341	2.612131	1.506416	-0.211643	0.127169	
7.011	-0.000702	-1.742840	2.228305	1.190371	2.612345	1.506157	-0.211246	0.127031	
8.020	-0.001877	-1.742443	2.228732	1.190524	2.612330	1.507347	-0.212375	0.126787	
9.020	-0.002075	-1.742367	2.228503	1.190890	2.611918	1.507622	-0.213138	0.126879	
10.020	-0.002411	-1.742351	2.228351	1.190951	2.612314	1.507255	-0.212375	0.126650	
11.021	-0.000595	-1.742611	2.228610	1.190463	2.611902	1.506492	-0.211627	0.126925	
12.017	-0.001068	-1.742687	2.228473	1.190631	2.612162	1.506142	-0.211597	0.127367	
13.020	-0.001694	-1.742428	2.228687	1.190646	2.609552	1.507057	-0.213047	0.127398	
14.008	-0.002167	-1.742550	2.228656	1.192141	2.598017	1.508018	-0.212909	0.127260	
15.008	-0.004166	-1.742550	2.228565	1.194949	2.622446	1.507240	-0.212512	0.127260	
16.008	-0.002090	-1.742733	2.229266	1.194857	2.611719	1.506218	-0.211490	0.127352	
17.009	-0.001953	-1.742595	2.229419	1.195392	2.613138	1.505989	-0.211734	0.127291	
18.021	-0.002426	-1.742443	2.229633	1.195254	2.613108	1.507530	-0.212802	0.127153	
19.021	-0.003006	-1.742214	2.229572	1.195453	2.613169	1.507728	-0.212772	0.127062	
20.010	-0.002533	-1.742244	2.229755	1.195300	2.613337	1.506859	-0.211826	0.127550	
21.010	-0.001556	-1.742718	2.229770	1.195239	2.613520	1.506325	-0.211185	0.127291	
22.019	-0.001877	-1.742702	2.230182	1.195529	2.613352	1.506828	-0.211826	0.126894	
23.007	-0.003281	-1.742427	2.229861	1.195681	2.613306	1.507164	-0.212879	0.127230	
24.008	-0.003372	-1.742290	2.230365	1.195849	2.613428	1.507713	-0.212894	0.127413	
25.008	-0.001221	-1.742519	2.230243	1.195926	2.613611	1.506554	-0.211948	0.127214	
26.008	-0.001450	-1.742534	2.230594	1.195742	2.613672	1.506233	-0.211475	0.127077	
27.008	-0.001724	-1.742336	2.230487	1.195834	2.613627	1.506676	-0.211933	0.127184	
28.022	-0.001694	-1.742367	2.230472	1.195910	2.613444	1.507515	-0.212421	0.126741	
29.009	-0.001282	-1.742244	2.230380	1.196154	2.613169	1.507500	-0.213047	0.126970	
30.009	-0.001480	-1.742519	2.230914	1.196353	2.613566	1.507027	-0.212253	0.126970	
31.010	-0.000534	-1.742626	2.231143	1.196154	2.613581	1.505989	-0.211185	0.126680	
32.019	-0.001068	-1.742595	2.230914	1.196185	2.613627	1.506615	-0.211673	0.127092	
33.007	-0.001862	-1.742458	2.230960	1.196689	2.613611	1.507271	-0.213092	0.126925	
34.008	-0.001968	-1.742367	2.231220	1.196673	2.613611	1.507439	-0.212573	0.127092	
35.012	-0.001190	-1.742275	2.231296	1.196475	2.613550	1.506691	-0.211566	0.127245	
36.012	-0.000458	-1.742672	2.231693	1.196841	2.613886	1.506294	-0.211429	0.127077	
37.012	-0.001373	-1.742595	2.231647	1.196933	2.613688	1.507088	-0.211902	0.126986	
38.013	-0.001617	-1.742214	2.231494	1.197009	2.613505	1.507423	-0.213214	0.127291	
39.013	-0.002304	-1.742321	2.231342	1.197223	2.613642	1.507530	-0.212650	0.127230	
40.013	-0.001511	-1.742473	2.231876	1.197070	2.613856	1.506813	-0.211688	0.126879	
41.013	-0.000656	-1.742611	2.231982	1.196856	2.613947	1.506401	-0.211154	0.126940	
42.019	-0.001678	-1.742611	2.231784	1.197116	2.613627	1.506966	-0.211948	0.127214	
43.019	-0.002563	-1.742306	2.231586	1.197451	2.613627	1.507484	-0.213092	0.127611	
44.015	-0.002457	-1.742290	2.231723	1.197406	2.613856	1.507225	-0.212604	0.127474	
45.015	-0.000992	-1.742550	2.232166	1.197406	2.613886	1.506752	-0.211872	0.127306	
46.015	-0.000763	-1.742626	2.232410	1.197268	2.613932	1.506157	-0.211399	0.126940	
47.021	-0.001816	-1.742489	2.232074	1.197604	2.613596	1.506462	-0.212390	0.127337	
48.022	-0.002853	-1.742367	2.231937	1.197635	2.613505	1.507133	-0.213062	0.127520	
49.022	-0.002060	-1.742351	2.232288	1.197818	2.613703	1.507194	-0.212848	0.127703	
50.022	-0.000931	-1.742733	2.232791	1.197528	2.614100	1.506462	-0.211765	0.127382	
51.007	-0.000778	-1.742672	2.232562	1.197467	2.613962	1.506081	-0.211917	0.127626	
52.019	-0.001587	-1.742473	2.232883	1.197650	2.613795	1.507088	-0.212039	0.127016	
53.007	-0.002625	-1.742382	2.232547	1.197986	2.613718	1.507622	-0.212985	0.127825	
54.007	-0.002335	-1.742550	2.232700	1.197879	2.613978	1.507378	-0.212543	0.127916	
55.008	-0.001465	-1.742550	2.232608	1.197696	2.613993	1.506569	-0.211521	0.127581	
56.008	0.000183	-1.742519	2.232898	1.197680	2.614008	1.506325	-0.211597	0.127382	
57.008	-0.002899	-1.742473	2.232913	1.197924	2.613962	1.507194	-0.212528	0.127535	
58.009	-0.002396	-1.742229	2.232547	1.197909	2.613932	1.507652	-0.212894	0.127840	
59.009	-0.004120	-1.742367	2.232654	1.197909	2.614054	1.507271	-0.212635	0.127611	
60.009	-0.001312	-1.742565	2.233020	1.197833	2.614222	1.506233	-0.211704	0.127489	
61.010	-0.001099	-1.742595	2.233417	1.197818	2.614298	1.506538	-0.211643	0.127260	
62.019	-0.002304	-1.742260	2.233234	1.197894	2.614146	1.507347	-0.212253	0.127092	
63.019	-0.003067	-1.742229	2.233127	1.198275	2.613795	1.507576	-0.212924	0.127016	
64.020	-0.001892	-1.742519	2.233203	1.198306	2.613856	1.507164	-0.212696	0.126986	
65.011	-0.001572	-1.742672	2.233508	1.197924	2.614146	1.506325	-0.211399	0.127367	
66.011	-0.001740	-1.742672	2.233585	1.198108	2.614130	1.506599	-0.211460	0.127260	
67.012	-0.003082	-1.742367	2.233310	1.198367	2.613978	1.507301	-0.212543	0.127657	
68.012	-0.002914	-1.742321	2.233569	1.198474	2.613947	1.508034	-0.212787	0.127565	
69.012	-0.002533	-1.742306	2.233325	1.198520	2.613917	1.506920	-0.212375	0.127703	
70.013	-0.001221	-1.742412	2.234058	1.198260	2.614222	1.506233	-0.211200	0.127428	
71.013	-0.001724	-1.742748	2.233722	1.198352	2.614100	1.506172	-0.211292	0.127321	
72.019	-0.003098	-1.742367	2.234042	1.198535	2.614084	1.507362	-0.212528	0.126940	
73.020	-0.002716	-1.742153	2.233768	1.198810	2.614023	1.507515	-0.213153	0.126955	
74.015	-0.001480	-1.742382	2.233936	1.198871	2.614115	1.506981	-0.212009	0.127504	
75.015	-0.001144	-1.742687	2.233859	1.198382	2.614329	1.506386	-0.211307	0.127474	
76.016	0.000519	-1.742824	2.234226	1.198657	2.614252	1.506325	-0.211643	0.127367	
77.021	-0.001755	-1.742138	2.233997	1.198977	2.614084	1.507667	-0.212192	0.126711	
78.021	-0.002350	-1.742244	2.234256	1.199160	2.614084	1.507820	-0.212573	0.126802	
79.021	-0.001724	-1.742504	2.234104	1.199023	2.614191	1.506920	-0.211994	0.126436	
80.022	-0.000443	-1.742702	2.234516	1.199054	2.614390	1.506721	-0.211338	0.126909	
81.022	-0.000656	-1.742443	2.234928	1.198825	2.614298	1.506721	-0.211658	0.126116	
82.019	-0.002243	-1.742336	2.234623	1.199206	2.614191	1.507469	-0.212665	0.127214	
83.022	-0.002167	-1.742321	2.234531	1.199374	2.614146	1.507667	-0.212741	0.127214	
84.007	-0.001450	-1.742428	2.234684	1.199450	2.614374	1.506996	-0.211902	0.126894	
85.007	-0.000778	-1.742550	2.235203	1.199099	2.614405	1.506508	-0.211429	0.126680	
86.008	-0.000732	-1.742351	2.234928	1.199313	2.614390	1.506477	-0.211978	0.126558	
87.008	-0.001312	-1.742382	2.235080	1.199710	2.614252	1.507484	-0.212726	0.127520	
88.008	-0.002121	-1.742214	2.235126	1.199603	2.614191	1.507454	-0.212558	0.126741	
89.009	-0.001144	-1.742489	2.235264	1.199557	2.614374	1.506599	-0.211719	0.126894	
90.009	-0.000519	-1.742595	2.235630	1.199695	2.614573	1.506279	-0.211399	0.126879	
91.009	-0.000443	-1.742397	2.235752	1.199893	2.614756	1.506538	-0.211780	0.126452	
92.019	-0.001846	-1.742443	2.235294	1.199740	2.614329	1.507484	-0.212894	0.126848	
93.019	-0.001801	-1.742306	2.235249	1.199893	2.614466	1.507545	-0.213153	0.127230	
94.020	-0.001114	-1.742626	2.235584	1.199878	2.614512	1.506233	-0.211887	0.127092	
95.011	0.000061	-1.742794	2.235874	1.199771	2.614710	1.505897	-0.211414	0.126650	
96.011	-0.001099	-1.742611	2.235783	1.200152	2.614481	1.506584	-0.212116	0.127047	
97.011	-0.002228	-1.742168	2.235706	1.200244	2.614420	1.507484	-0.212467	0.126863	
98.021	-0.001938	-1.742260	2.235432	1.200290	2.614390	1.507515	-0.212528	0.127504	
99.021	-0.000702	-1.742565	2.235859	1.200198	2.614741	1.506462	-0.211688	0.127291	
100.021	-0.000549	-1.742580	2.235752	1.199923	2.614741	1.506019	-0.211307	0.127199	
101.022	-0.001663	-1.742687	2.236210	1.200213	2.614695	1.506706	-0.212543	0.127367	
102.019	-0.002518	-1.742290	2.236027	1.200488	2.614619	1.507515	-0.213169	0.127550	
103.021	-0.002548	-1.742443	2.235950	1.200595	2.614634	1.507454	-0.212879	0.127581	
104.008	-0.001144	-1.742611	2.236347	1.200351	2.614680	1.506737	-0.212039	0.127352	
105.008	-0.000809	-1.742748	2.236713	1.200488	2.614619	1.506218	-0.211475	0.127169	
106.008	-0.001907	-1.742336	2.236637	1.200610	2.614374	1.507149	-0.212375	0.127306	
107.009	-0.002945	-1.742473	2.236485	1.200900	2.614573	1.507774	-0.212497	0.127260	
108.021	-0.001602	-1.742397	2.236820	1.200976	2.614664	1.507057	-0.212268	0.127230	
109.021	-0.001083	-1.742702	2.236851	1.200778	2.614695	1.506233	-0.211429	0.127047	
110.011	-0.001053	-1.742443	2.237125	1.200885	2.614695	1.505974	-0.211414	0.126665	
111.011	-0.002060	-1.742519	2.237125	1.201175	2.614680	1.507225	-0.212558	0.126970	
112.021	-0.003021	-1.742306	2.236851	1.201327	2.614542	1.507530	-0.212894	0.127581	
113.008	-0.002548	-1.742336	2.236988	1.201022	2.614619	1.507164	-0.212558	0.127260	
114.008	-0.001312	-1.742321	2.237354	1.200961	2.614817	1.506111	-0.211399	0.127062	
115.008	-0.001144	-1.742519	2.237446	1.201175	2.614969	1.506157	-0.211521	0.126970	
116.009	-0.002228	-1.742458	2.237492	1.201465	2.614756	1.506813	-0.212894	0.127092	
117.009	-0.003021	-1.742138	2.237446	1.201602	2.614725	1.507561	-0.213214	0.127123	
118.022	-0.001816	-1.742443	2.237873	1.201663	2.614847	1.507149	-0.212497	0.126879	
119.010	-0.001297	-1.742534	2.237797	1.201403	2.615153	1.506645	-0.211566	0.126925	
120.010	-0.001389	-1.742595	2.237766	1.201510	2.614893	1.506431	-0.211582	0.127138	
121.011	-0.002045	-1.742321	2.237782	1.201983	2.614863	1.507240	-0.212741	0.127108	
122.021	-0.003174	-1.742275	2.237598	1.202044	2.614832	1.507500	-0.212757	0.127398	
123.021	-0.002991	-1.742595	2.237568	1.201907	2.615031	1.506859	-0.212162	0.127138	
124.022	-0.001312	-1.742534	2.238056	1.201632	2.614878	1.506416	-0.211246	0.127001	
125.012	-0.001251	-1.742534	2.238209	1.201892	2.615015	1.506081	-0.211917	0.127245	
126.012	-0.001984	-1.742534	2.238224	1.201922	2.614878	1.507378	-0.212711	0.127047	
127.013	-0.003143	-1.742351	2.238316	1.202319	2.614985	1.507439	-0.212680	0.127153	
128.022	-0.002045	-1.742534	2.238667	1.202044	2.615046	1.506737	-0.212100	0.126894	
129.007	-0.001480	-1.742763	2.238895	1.202151	2.615122	1.506325	-0.211460	0.126543	
130.007	-0.001297	-1.742565	2.238834	1.202227	2.614863	1.506294	-0.211643	0.126497	
131.007	-0.002029	-1.742397	2.238926	1.202243	2.614786	1.507347	-0.212573	0.126741	
132.021	-0.002151	-1.742199	2.238880	1.202441	2.614924	1.507118	-0.212818	0.126558	
133.015	-0.001862	-1.742519	2.238789	1.202441	2.615107	1.506691	-0.212039	0.126543	
134.008	-0.002991	-1.742580	2.238880	1.202304	2.615229	1.506309	-0.211582	0.127062	
135.008	-0.002563	-1.742595	2.238834	1.202395	2.615214	1.506386	-0.211521	0.126879	
136.009	-0.004608	-1.742428	2.238819	1.202289	2.614664	1.507973	-0.213001	0.127321	
137.009	-0.003708	-1.742397	2.238789	1.202609	2.614817	1.507378	-0.212696	0.127337	
138.007	-0.002335	-1.742321	2.239002	1.202685	2.615076	1.506752	-0.212100	0.126802	
139.007	-0.001389	-1.742382	2.239475	1.202639	2.615229	1.506264	-0.211093	0.126665	
140.010	-0.001663	-1.742489	2.239658	1.202609	2.615122	1.506477	-0.211856	0.126955	
141.010	-0.001282	-1.742199	2.239414	1.202746	2.614863	1.507591	-0.212757	0.127031	
142.021	-0.001877	-1.742306	2.239231	1.203021	2.614878	1.507622	-0.213031	0.126711	
143.009	-0.000626	-1.742367	2.239750	1.202945	2.614985	1.506859	-0.211734	0.126513	
144.009	-0.000458	-1.742489	2.239567	1.202807	2.615198	1.506416	-0.211627	0.126574	
145.009	-0.000488	-1.742351	2.240040	1.203113	2.615137	1.506584	-0.212238	0.126406	
146.010	-0.001740	-1.742351	2.240177	1.203036	2.615076	1.507240	-0.212909	0.126696	
147.010	-0.002289	-1.742183	2.239735	1.203495	2.615107	1.507362	-0.212787	0.126940	
148.010	-0.001007	-1.742611	2.239857	1.203235	2.615214	1.506645	-0.212039	0.126680	
149.011	-0.000519	-1.742595	2.240192	1.202945	2.615168	1.506401	-0.211383	0.126467	
150.011	-0.001144	-1.742367	2.240360	1.203051	2.615244	1.506355	-0.212009	0.126604	
151.011	-0.002136	-1.742153	2.239964	1.203510	2.614832	1.507439	-0.212772	0.126757	
152.021	-0.001892	-1.742336	2.240238	1.203693	2.615061	1.507835	-0.212573	0.126741	
153.021	-0.001083	-1.742595	2.240574	1.203403	2.615259	1.506706	-0.211811	0.126543	
154.021	-0.000748	-1.742687	2.240604	1.203388	2.615534	1.506111	-0.211078	0.126665	
155.013	-0.001083	-1.742382	2.240284	1.203662	2.615198	1.506843	-0.212345	0.127138	
156.013	-0.002380	-1.742168	2.240818	1.203769	2.615137	1.507454	-0.212757	0.127214	
157.013	-0.002090	-1.742382	2.240742	1.203937	2.615244	1.507301	-0.212650	0.127337	
158.022	-0.001083	-1.742763	2.240803	1.203708	2.615427	1.506279	-0.211414	0.126543	
159.007	-0.000183	-1.742595	2.241108	1.203403	2.615534	1.506264	-0.211322	0.126375	
160.007	-0.001297	-1.742428	2.240849	1.203647	2.615168	1.507103	-0.212512	0.126543	
161.008	-0.002457	-1.742382	2.240879	1.204074	2.615244	1.507286	-0.212909	0.126665	
162.020	-0.002045	-1.742306	2.240833	1.203937	2.615381	1.507164	-0.212680	0.126833	
163.021	-0.001099	-1.742565	2.241428	1.203952	2.615488	1.506477	-0.211872	0.126528	
164.009	-0.001266	-1.742733	2.241627	1.203693	2.615397	1.506218	-0.211658	0.126635	
165.010	-0.001236	-1.742260	2.241550	1.204517	2.615488	1.507408	-0.212482	0.126619	
166.010	-0.002197	-1.742138	2.241215	1.204410	2.615214	1.507698	-0.212940	0.126818	
167.010	-0.002258	-1.742336	2.241688	1.204074	2.615366	1.507484	-0.212573	0.126680	
168.010	-0.001221	-1.742702	2.241856	1.204029	2.615595	1.506630	-0.211658	0.126406	
169.011	-0.000931	-1.742656	2.241688	1.203876	2.615534	1.506447	-0.211750	0.126482	
170.011	-0.001862	-1.742351	2.241505	1.204273	2.615381	1.507194	-0.212375	0.126482	
171.011	-0.002548	-1.742168	2.241596	1.204532	2.615381	1.507759	-0.212665	0.126818	
172.021	-0.002304	-1.742367	2.241718	1.204502	2.615336	1.507057	-0.212131	0.127291	
173.012	-0.001205	-1.742534	2.241993	1.204196	2.615488	1.506370	-0.211444	0.126528	
174.012	-0.001724	-1.742626	2.242451	1.204257	2.615656	1.506248	-0.211750	0.126375	
175.013	-0.002426	-1.742382	2.242191	1.204639	2.615366	1.507088	-0.212406	0.126482	
176.013	-0.002762	-1.742275	2.242130	1.204822	2.615320	1.507423	-0.213016	0.126589	
177.013	-0.001892	-1.742443	2.242207	1.204700	2.615534	1.507255	-0.212039	0.126650	
178.014	-0.000977	-1.742626	2.242695	1.204654	2.615778	1.506462	-0.211627	0.126543	
179.015	-0.001862	-1.742534	2.242634	1.204853	2.615504	1.506065	-0.211612	0.126497	
180.015	-0.003006	-1.742412	2.242527	1.205142	2.615473	1.507728	-0.212406	0.126589	
181.016	-0.003006	-1.742122	2.242588	1.204975	2.615458	1.507469	-0.212818	0.126711	
182.021	0.001526	-1.742473	2.242405	1.204685	2.615519	1.506737	-0.212284	0.126650	
183.022	0.002518	-1.742428	2.242985	1.204700	2.615855	1.506386	-0.211521	0.126604	
184.022	0.002106	-1.742611	2.243443	1.204914	2.615778	1.506279	-0.211795	0.126513	
185.022	0.000641	-1.742443	2.243397	1.205249	2.615473	1.507286	-0.212528	0.126635	
186.007	0.000656	-1.742428	2.243900	1.205966	2.615671	1.507789	-0.213031	0.126741	
187.007	0.000916	-1.742367	2.244450	1.206150	2.615855	1.506904	-0.212192	0.126543	
188.007	0.001282	-1.742534	2.245457	1.206577	2.616129	1.505958	-0.211521	0.126436	
189.008	0.000717	-1.742397	2.246586	1.207172	2.615977	1.506660	-0.211933	0.126360	
190.008	-0.000778	-1.742275	2.247471	1.207965	2.615961	1.507164	-0.212589	0.126452	
191.008	-0.001190	-1.742336	2.247974	1.208499	2.616144	1.507805	-0.213138	0.126314	
192.021	-0.000809	-1.742351	2.248768	1.209018	2.616282	1.507133	-0.212100	0.127642	
193.021	-0.000778	-1.742367	2.249622	1.209522	2.616389	1.506325	-0.211551	0.126955	
194.009	-0.000015	-1.742595	2.250782	1.209964	2.616373	1.506721	-0.211566	0.126299	
195.010	0.000610	-1.742153	2.251423	1.211063	2.616541	1.507698	-0.212558	0.126925	
196.010	0.000565	-1.742336	2.252018	1.211658	2.616617	1.507118	-0.212635	0.126757	
197.010	0.002686	-1.742428	2.253239	1.212039	2.616892	1.506767	-0.211597	0.127153	
198.022	0.001785	-1.742580	2.253910	1.212131	2.617045	1.506157	-0.211322	0.126589	
199.022	0.000137	-1.742504	2.254490	1.213138	2.617014	1.506904	-0.212284	0.127459	
200.011	-0.001465	-1.742443	2.255207	1.213886	2.617060	1.507637	-0.212848	0.126513	
201.012	-0.001801	-1.742229	2.256260	1.214557	2.617411	1.507439	-0.212543	0.126818	
202.020	-0.000580	-1.742611	2.257069	1.214618	2.617426	1.506462	-0.211826	0.127260	
203.008	-0.000824	-1.742718	2.257801	1.215000	2.617594	1.506370	-0.211475	0.126940	
204.008	-0.000397	-1.742534	2.258183	1.215503	2.617548	1.506966	-0.212131	0.126925	
205.008	0.001404	-1.742122	2.258732	1.216327	2.617655	1.507332	-0.212940	0.126925	
206.009	0.002548	-1.742183	2.259510	1.217044	2.617747	1.507240	-0.212772	0.126802	
207.009	0.001251	-1.742550	2.260792	1.216968	2.618021	1.506523	-0.211887	0.126757	
208.009	0.001617	-1.742504	2.261326	1.217334	2.618265	1.505989	-0.211490	0.126635	
209.009	0.001068	-1.742458	2.261753	1.218357	2.618143	1.507103	-0.212421	0.126848	
210.010	0.000290	-1.742122	2.262196	1.218357	2.617899	1.507622	-0.213291	0.126787	
211.010	0.000244	-1.742306	2.262791	1.218830	2.617899	1.507240	-0.212436	0.126879	
212.021	0.000793	-1.742428	2.263783	1.218753	2.618296	1.506569	-0.211429	0.127245	
213.022	0.001450	-1.742367	2.264652	1.219226	2.618265	1.506340	-0.211765	0.126955	
214.022	-0.000763	-1.742534	2.264805	1.219715	2.618128	1.507301	-0.212207	0.126970	
215.011	-0.001358	-1.742275	2.265400	1.220356	2.618067	1.507576	-0.213535	0.127077	
216.011	-0.001221	-1.742229	2.265904	1.220859	2.618311	1.507133	-0.212360	0.127337	
217.012	-0.000580	-1.742336	2.266682	1.220905	2.618433	1.506157	-0.211444	0.127153	
218.007	0.000305	-1.742443	2.267811	1.221454	2.618723	1.505867	-0.211490	0.126574	
219.007	0.001282	-1.742122	2.267949	1.222126	2.618616	1.507164	-0.212711	0.126635	
220.007	0.000656	-1.742122	2.268513	1.222614	2.618677	1.507774	-0.213047	0.127275	
221.013	0.000549	-1.742092	2.269032	1.222934	2.618815	1.506737	-0.212482	0.127367	
222.022	0.001984	-1.742382	2.270024	1.222934	2.619150	1.506172	-0.211551	0.126802	
223.022	0.001526	-1.742321	2.270772	1.223682	2.619272	1.506676	-0.211765	0.126772	
224.010	-0.000687	-1.742275	2.271016	1.224140	2.618983	1.507027	-0.212512	0.127337	
225.010	-0.001114	-1.742244	2.271412	1.224887	2.618998	1.507576	-0.213077	0.127642	
226.010	-0.000565	-1.742229	2.272282	1.225147	2.619120	1.507210	-0.212024	0.127657	
227.011	0.000076	-1.742504	2.272999	1.225437	2.619501	1.506340	-0.211231	0.127138	
228.007	-0.000320	-1.742077	2.273732	1.225727	2.619410	1.506401	-0.211612	0.126482	
229.008	-0.001663	-1.742412	2.274098	1.226429	2.619456	1.507225	-0.212406	0.126711	
230.013	-0.002304	-1.741985	2.274281	1.226840	2.619440	1.507652	-0.213352	0.127291	
231.013	0.001373	-1.742199	2.275486	1.227207	2.619776	1.506920	-0.212223	0.127001	
232.020	0.003036	-1.742306	2.276509	1.227466	2.619974	1.506050	-0.211200	0.126024	
233.008	0.001907	-1.742321	2.276936	1.227985	2.619837	1.506508	-0.211826	0.126818	
234.009	0.001831	-1.742138	2.277211	1.228611	2.619822	1.507301	-0.212833	0.126741	
235.009	0.000198	-1.742016	2.277852	1.229023	2.619868	1.507439	-0.213199	0.127092	
236.007	0.001083	-1.742504	2.278676	1.229450	2.619974	1.506508	-0.211795	0.126665	
237.008	0.001297	-1.742397	2.279774	1.229892	2.620356	1.505897	-0.211292	0.126513	
238.009	0.000946	-1.742458	2.279728	1.230350	2.620264	1.506370	-0.211811	0.126162	
239.010	-0.001144	-1.742000	2.280461	1.230899	2.620234	1.507316	-0.212787	0.126894	
240.010	-0.001678	-1.742229	2.281117	1.231235	2.620386	1.507011	-0.212863	0.127382	
241.015	-0.000854	-1.742382	2.281559	1.231830	2.620631	1.506920	-0.212131	0.127092	
242.021	-0.000259	-1.742275	2.282643	1.232090	2.620661	1.505943	-0.211521	0.126101	
243.021	0.000183	-1.742321	2.283619	1.232730	2.620631	1.506447	-0.212055	0.126284	
244.021	0.001556	-1.742229	2.284001	1.233524	2.620737	1.507439	-0.212924	0.126207	
245.022	0.001114	-1.741955	2.284794	1.234119	2.620890	1.507591	-0.212970	0.126101	
246.022	0.002625	-1.742351	2.285649	1.234409	2.621058	1.506752	-0.212039	0.126421	
247.022	0.002533	-1.742275	2.286290	1.234730	2.621226	1.506355	-0.211475	0.126055	
248.007	0.000946	-1.742214	2.287190	1.235279	2.621134	1.506294	-0.211658	0.126406	
249.007	-0.002014	-1.741924	2.287510	1.236134	2.621012	1.507423	-0.212894	0.126986	
250.008	-0.000717	-1.742092	2.288197	1.236820	2.621134	1.507469	-0.213077	0.126802	
251.008	0.000259	-1.742183	2.289097	1.236866	2.621287	1.506554	-0.211933	0.126284	
252.020	0.001205	-1.742290	2.290120	1.237186	2.621500	1.506309	-0.211307	0.126116	
253.020	-0.000717	-1.742382	2.290928	1.237904	2.621714	1.506966	-0.212024	0.126268	
254.010	-0.001877	-1.742061	2.291111	1.238651	2.621332	1.507667	-0.212482	0.127153	
255.010	-0.002731	-1.742061	2.291432	1.239155	2.621531	1.507530	-0.212848	0.126955	
256.010	0.002457	-1.742397	2.292515	1.239384	2.622034	1.506386	-0.211536	0.126955	
257.011	0.003098	-1.742229	2.293416	1.239628	2.621973	1.506523	-0.211597	0.126787	
258.021	0.000916	-1.741955	2.294087	1.240208	2.621912	1.507118	-0.212497	0.126375	
259.022	0.000366	-1.742046	2.294697	1.240940	2.621836	1.507683	-0.212879	0.126314	
260.012	0.000610	-1.741970	2.295262	1.241474	2.622080	1.507545	-0.212573	0.127047	
261.012	0.001160	-1.742138	2.296025	1.241505	2.622050	1.506126	-0.211643	0.126833	
262.019	0.000717	-1.742321	2.296941	1.242039	2.622507	1.506218	-0.211521	0.126070	
263.022	-0.000259	-1.742000	2.297276	1.242496	2.622217	1.507118	-0.213123	0.126741	
264.022	-0.001541	-1.741787	2.297765	1.243229	2.621973	1.507774	-0.213016	0.126894	
265.022	-0.001831	-1.742138	2.298406	1.243595	2.622507	1.506981	-0.212558	0.126604	
266.007	-0.000351	-1.742122	2.299337	1.243717	2.622690	1.506111	-0.211795	0.126452	
267.007	-0.001205	-1.742443	2.299993	1.244389	2.622782	1.506264	-0.211750	0.126558	
268.007	-0.001511	-1.742107	2.300512	1.245014	2.622629	1.507393	-0.212558	0.126558	
269.008	0.001053	-1.741893	2.300847	1.245533	2.622675	1.507744	-0.212848	0.126772	
270.008	0.001007	-1.742138	2.301748	1.245960	2.622767	1.506904	-0.212375	0.126680	
271.008	0.001907	-1.742229	2.302602	1.245991	2.622919	1.506386	-0.211353	0.126726	
272.019	0.001465	-1.742229	2.303609	1.246525	2.623102	1.506218	-0.211627	0.126284	
273.019	0.001236	-1.742046	2.303869	1.247272	2.622889	1.507393	-0.212924	0.126497	
274.019	-0.000702	-1.741787	2.304433	1.247684	2.623011	1.507789	-0.212680	0.126421	
275.011	0.000107	-1.742000	2.304616	1.248112	2.623148	1.506782	-0.212604	0.127062	
276.011	0.000610	-1.742336	2.305761	1.248478	2.623331	1.506096	-0.211673	0.126925	
277.011	0.000061	-1.742229	2.306676	1.248814	2.623316	1.506401	-0.211948	0.126879	
278.020	-0.001633	-1.742183	2.307149	1.249302	2.623209	1.507210	-0.212345	0.126772	
279.020	-0.001816	-1.741909	2.307332	1.249775	2.623347	1.507789	-0.212802	0.126925	
280.020	0.002121	-1.741970	2.308248	1.250217	2.623698	1.506813	-0.211994	0.126848	
281.012	0.003036	-1.742275	2.308965	1.250751	2.623926	1.506248	-0.211551	0.126329	
282.019	0.000443	-1.742153	2.309972	1.251026	2.623911	1.506599	-0.212131	0.126726	
283.020	0.000183	-1.742000	2.310064	1.251667	2.623789	1.507286	-0.213123	0.127199	
284.021	-0.001221	-1.741909	2.310979	1.252399	2.623926	1.507881	-0.212985	0.126558	
285.021	0.000259	-1.742015	2.311773	1.252674	2.623835	1.506660	-0.212009	0.126589	
286.021	0.000717	-1.742214	2.312276	1.252964	2.624079	1.506462	-0.211597	0.126558	
287.022	0.000305	-1.742031	2.313070	1.253452	2.623987	1.507011	-0.211963	0.126604	
288.022	-0.001450	-1.742031	2.313726	1.254017	2.624125	1.507622	-0.212772	0.126406	
289.022	-0.001038	-1.741939	2.314397	1.254627	2.624110	1.507698	-0.212955	0.126589	
290.007	-0.001083	-1.741955	2.315267	1.254917	2.624460	1.506828	-0.211826	0.126284	
291.007	-0.000549	-1.742321	2.316121	1.255161	2.624613	1.506477	-0.211475	0.126268	
292.018	-0.000916	-1.742107	2.316503	1.255665	2.624659	1.506569	-0.211917	0.126192	
293.007	0.001175	-1.741771	2.316701	1.256565	2.624491	1.507606	-0.212863	0.126863	
294.007	0.000946	-1.741817	2.317495	1.256794	2.624827	1.507378	-0.212573	0.126970	
295.008	0.001816	-1.742183	2.318471	1.257389	2.624857	1.506523	-0.211734	0.126879	
296.008	0.001877	-1.742214	2.319494	1.257618	2.625223	1.506203	-0.211643	0.126741	
297.009	0.001022	-1.741924	2.319951	1.258289	2.625086	1.507240	-0.212787	0.126848	
298.009	0.000793	-1.741848	2.320516	1.258915	2.624964	1.507835	-0.212665	0.127199	
299.009	-0.000854	-1.741863	2.320928	1.259388	2.625056	1.507530	-0.212863	0.126925	
300.009	0.001434	-1.742046	2.322026	1.259495	2.625284	1.506218	-0.211902	0.126589	
301.010	0.000565	-1.742244	2.322942	1.259861	2.625422	1.505989	-0.211460	0.126452	
302.018	-0.001343	-1.741970	2.323323	1.260654	2.625254	1.507133	-0.212390	0.126711	
303.018	-0.002167	-1.741726	2.323949	1.261112	2.625376	1.507698	-0.213016	0.127245	
304.019	-0.001434	-1.742000	2.324361	1.261555	2.625468	1.507225	-0.212573	0.127077	
305.011	0.002441	-1.742077	2.325689	1.261982	2.625666	1.506538	-0.211643	0.126345	
306.012	0.002151	-1.742000	2.326162	1.262257	2.625956	1.506081	-0.211521	0.126207	
307.012	0.001007	-1.741924	2.326680	1.262669	2.625880	1.507179	-0.212284	0.126390	
308.020	-0.001251	-1.741863	2.327230	1.263523	2.625880	1.507530	-0.212924	0.127230	
309.020	0.000092	-1.741787	2.327901	1.263859	2.625849	1.507057	-0.212573	0.126970	
310.020	0.000732	-1.741924	2.328603	1.264271	2.625986	1.506401	-0.211475	0.126696	
311.015	0.000763	-1.742015	2.329565	1.264774	2.626108	1.506264	-0.211963	0.127016	
312.018	-0.000671	-1.741848	2.329793	1.265171	2.626078	1.507255	-0.212970	0.126986	
313.020	-0.001450	-1.741817	2.330419	1.265828	2.625925	1.507484	-0.212680	0.126818	
314.007	-0.002213	-1.741802	2.331350	1.266377	2.626200	1.507423	-0.212329	0.126528	
315.007	-0.000931	-1.742031	2.332342	1.266804	2.626612	1.506157	-0.211551	0.126223	
316.007	-0.000854	-1.742199	2.333303	1.267125	2.626581	1.506081	-0.211750	0.126375	
317.008	-0.001694	-1.742046	2.333211	1.267674	2.626398	1.507164	-0.212345	0.126528	
318.008	0.000687	-1.741863	2.334051	1.268177	2.626612	1.507820	-0.212894	0.126894	
319.008	0.000534	-1.741924	2.335073	1.268757	2.626658	1.507408	-0.212604	0.127001	
320.009	0.001968	-1.742015	2.335515	1.269123	2.626749	1.506218	-0.211383	0.127031	
321.009	0.000839	-1.741985	2.336355	1.269657	2.626978	1.506523	-0.212085	0.127031	
322.018	-0.000336	-1.741710	2.336812	1.270161	2.626688	1.507408	-0.212818	0.126467	
323.011	-0.000809	-1.741588	2.337133	1.270726	2.626917	1.507561	-0.213031	0.127001	
324.011	-0.000076	-1.741863	2.337926	1.270893	2.626932	1.506737	-0.211948	0.126894	
325.011	-0.000687	-1.741878	2.339101	1.271260	2.627192	1.506355	-0.211368	0.126665	
326.012	-0.000717	-1.742092	2.339468	1.271702	2.627314	1.506630	-0.211399	0.126650	
327.012	-0.002060	-1.741604	2.340032	1.272419	2.626948	1.507561	-0.212818	0.126604	
328.012	-0.002350	-1.741649	2.340810	1.273167	2.627375	1.507698	-0.213062	0.126528	
329.013	0.001617	-1.741924	2.341939	1.273289	2.627573	1.507042	-0.212192	0.126497	
330.013	0.002457	-1.741878	2.342382	1.273625	2.627695	1.505943	-0.211292	0.126360	
331.013	0.001633	-1.741817	2.343191	1.274296	2.627741	1.506477	-0.211856	0.126497	
332.017	0.000626	-1.741497	2.343465	1.274739	2.627680	1.507133	-0.212772	0.127504	
333.018	-0.000244	-1.741634	2.344015	1.275441	2.627634	1.507683	-0.213077	0.127398	
334.018	0.001022	-1.741710	2.344686	1.275959	2.628016	1.506492	-0.212039	0.127138	
335.015	0.000717	-1.741909	2.345815	1.275883	2.628092	1.506431	-0.211246	0.126696	
336.015	-0.000458	-1.741832	2.346456	1.276326	2.627985	1.506996	-0.212314	0.126802	
337.016	-0.000229	-1.741588	2.346975	1.277317	2.628123	1.507622	-0.212726	0.127123	
338.019	-0.001846	-1.741832	2.347158	1.277577	2.628214	1.507530	-0.212787	0.127428	
339.019	0.003021	-1.741802	2.348073	1.277760	2.628245	1.506676	-0.212039	0.127123	
340.019	0.003632	-1.742016	2.348745	1.278065	2.628412	1.505897	-0.211124	0.126833	
341.020	0.002701	-1.741680	2.349218	1.278508	2.628519	1.506935	-0.212406	0.127214	
342.017	0.001282	-1.741603	2.349630	1.279240	2.628229	1.507393	-0.213016	0.127382	
343.020	0.001724	-1.741603	2.350255	1.279530	2.628382	1.507164	-0.212680	0.127199	
344.020	0.001663	-1.741878	2.351125	1.279835	2.628657	1.506416	-0.211673	0.126894	
345.021	0.001648	-1.741939	2.351797	1.280262	2.628779	1.506508	-0.211505	0.126711	
346.021	0.000259	-1.741649	2.352254	1.280842	2.628641	1.507362	-0.212192	0.126955	
347.021	-0.000153	-1.741649	2.353017	1.281559	2.628565	1.507851	-0.212741	0.127031	
348.022	-0.000961	-1.741848	2.353582	1.281849	2.628565	1.507652	-0.212314	0.126970	
349.022	0.000748	-1.741787	2.354543	1.282139	2.628962	1.506248	-0.211765	0.126635	
350.022	0.000519	-1.741863	2.355169	1.282475	2.629114	1.506157	-0.211643	0.126619	
351.007	-0.001160	-1.741573	2.355718	1.283009	2.628916	1.507194	-0.212268	0.126436	
352.017	-0.002014	-1.741497	2.355947	1.283528	2.628886	1.507774	-0.213169	0.127367	
353.022	-0.001999	-1.741680	2.357061	1.284077	2.629175	1.507316	-0.212421	0.126635	
354.007	0.002136	-1.741802	2.357732	1.284153	2.629343	1.506218	-0.211521	0.126436	
355.009	0.002548	-1.741863	2.358541	1.284672	2.629465	1.506492	-0.211658	0.126345	
356.008	0.000885	-1.741817	2.359334	1.285344	2.629679	1.507515	-0.212665	0.126436	
357.008	-0.000046	-1.741390	2.359518	1.285725	2.629267	1.507378	-0.212940	0.126619	
358.007	0.000931	-1.741573	2.360159	1.286183	2.629603	1.506950	-0.212467	0.126680	
359.010	0.000916	-1.741848	2.361105	1.286274	2.629923	1.506508	-0.211521	0.126772	
360.011	0.000748	-1.741542	2.361822	1.286702	2.629862	1.506309	-0.211734	0.126406	
361.011	-0.000504	-1.741680	2.362448	1.287373	2.629893	1.506966	-0.212314	0.126543	
362.018	-0.001434	-1.741512	2.362844	1.287892	2.629481	1.507637	-0.213123	0.127138	
363.018	-0.001389	-1.741619	2.363607	1.288151	2.629389	1.507179	-0.212665	0.127123	
364.018	-0.000504	-1.741802	2.364538	1.288746	2.629847	1.506248	-0.211353	0.126940	
365.013	-0.000610	-1.741894	2.364950	1.289250	2.629877	1.506569	-0.211795	0.126421	
366.014	0.002014	-1.741634	2.365743	1.289860	2.629801	1.507301	-0.212421	0.126589	
367.014	0.000778	-1.741451	2.366201	1.290455	2.629740	1.507530	-0.213031	0.126818	
368.020	0.001297	-1.741634	2.366873	1.290638	2.630030	1.506859	-0.211872	0.127199	
369.020	0.001938	-1.741695	2.367544	1.291066	2.630289	1.506111	-0.211338	0.127047	
370.020	0.000931	-1.741481	2.368505	1.291676	2.630350	1.506706	-0.212207	0.127291	
371.021	0.000107	-1.741558	2.368612	1.292088	2.630289	1.507469	-0.212787	0.127428	
372.017	-0.000565	-1.741298	2.369390	1.292500	2.630244	1.507545	-0.212909	0.127535	
373.021	-0.000626	-1.741573	2.370229	1.293034	2.630411	1.506706	-0.211902	0.127428	
374.021	0.000214	-1.741710	2.371282	1.293492	2.630686	1.506157	-0.211475	0.127153	
375.022	-0.000519	-1.741741	2.371755	1.293721	2.630610	1.506966	-0.211933	0.127138	
376.022	-0.001770	-1.741466	2.372473	1.294346	2.630701	1.507530	-0.212863	0.127352	
377.022	-0.001923	-1.741634	2.372961	1.295079	2.630930	1.507530	-0.213397	0.127382	
378.022	0.002289	-1.741634	2.373708	1.295170	2.631006	1.506401	-0.211841	0.127306	
379.007	0.002670	-1.741771	2.374593	1.295567	2.631113	1.506370	-0.211322	0.127138	
380.007	0.000946	-1.741665	2.375540	1.296040	2.631205	1.507255	-0.212039	0.127092	
381.007	0.000839	-1.741451	2.375738	1.296895	2.630961	1.507805	-0.213230	0.127260	
382.019	0.000320	-1.741283	2.376470	1.297460	2.631083	1.507301	-0.212696	0.127596	
383.007	0.001373	-1.741665	2.377416	1.297765	2.631403	1.506691	-0.211490	0.126986	
384.007	0.001022	-1.741695	2.378210	1.298085	2.631434	1.506462	-0.211200	0.126879	
385.008	-0.000595	-1.741314	2.378637	1.298665	2.631312	1.507240	-0.212650	0.127153	
386.008	-0.000961	-1.741375	2.379064	1.299306	2.631251	1.507683	-0.213336	0.127031	
387.008	-0.001312	-1.741420	2.380056	1.299550	2.631525	1.507469	-0.212390	0.127169	
388.009	-0.001129	-1.741558	2.380575	1.299932	2.631678	1.506386	-0.211841	0.126925	
389.022	-0.000244	-1.741497	2.381262	1.300466	2.631769	1.506096	-0.211368	0.127230	
390.007	0.003098	-1.741375	2.381994	1.300817	2.631647	1.506996	-0.212192	0.127031	
391.007	0.000977	-1.741420	2.382711	1.301702	2.631861	1.507576	-0.213169	0.127459	
392.010	0.001068	-1.741146	2.383047	1.302083	2.631846	1.507103	-0.212863	0.127672	
393.010	0.001587	-1.741573	2.383871	1.302190	2.632197	1.506431	-0.211765	0.126818	
394.011	0.001389	-1.741329	2.384710	1.302785	2.632227	1.506172	-0.211856	0.126986	
395.011	0.000443	-1.741146	2.385351	1.303487	2.632258	1.506782	-0.212146	0.127077	
396.011	-0.000259	-1.741329	2.385549	1.303929	2.632288	1.507606	-0.212787	0.127367	
397.012	-0.000443	-1.741268	2.386266	1.304357	2.632258	1.507271	-0.212909	0.128038	
398.012	0.000671	-1.741375	2.387121	1.304738	2.632639	1.506615	-0.211963	0.127840	
399.014	0.000702	-1.741512	2.388159	1.304891	2.632776	1.506065	-0.211429	0.127214	
400.014	-0.000381	-1.741390	2.388433	1.305516	2.632639	1.507179	-0.212421	0.127153	
401.014	-0.002472	-1.741497	2.388906	1.306157	2.632715	1.507759	-0.213062	0.127337	
402.015	-0.002930	-1.741405	2.389669	1.306249	2.632609	1.506981	-0.212528	0.127001	
403.015	-0.001221	-1.741436	2.390661	1.306768	2.632929	1.506309	-0.211475	0.126940	
404.015	-0.000778	-1.741253	2.391348	1.307057	2.632868	1.506248	-0.211307	0.126955	
405.016	0.001816	-1.741085	2.391715	1.307729	2.632746	1.507378	-0.212680	0.126879	
406.016	0.000504	-1.741069	2.392142	1.308278	2.632975	1.507698	-0.212787	0.127077	
407.016	0.001312	-1.741268	2.392874	1.308644	2.633204	1.507057	-0.212314	0.126772	
408.016	0.002213	-1.741329	2.393973	1.308965	2.633326	1.506218	-0.211414	0.126497	
409.014	0.000916	-1.741497	2.394461	1.309545	2.633372	1.506721	-0.211688	0.126955	
410.017	0.000046	-1.741436	2.395209	1.310155	2.633250	1.507591	-0.212802	0.126863	
411.018	-0.001190	-1.740856	2.395651	1.310750	2.633173	1.507805	-0.213169	0.126726	
412.018	-0.000137	-1.741405	2.396872	1.311360	2.633494	1.507027	-0.212131	0.126467	
413.018	0.000198	-1.741390	2.397147	1.311513	2.633570	1.506065	-0.211566	0.126467	
414.018	-0.000519	-1.741359	2.397772	1.311925	2.633600	1.506843	-0.211765	0.126360	
415.018	-0.002060	-1.740993	2.398337	1.312307	2.633524	1.507500	-0.213001	0.126665	
416.019	-0.002411	-1.740932	2.398917	1.313130	2.633555	1.507698	-0.212802	0.127108	
417.019	0.001938	-1.741192	2.399985	1.313329	2.633875	1.506645	-0.212238	0.126329	
418.019	0.002472	-1.741329	2.400763	1.313680	2.634089	1.506401	-0.211704	0.126757	
419.013	0.002167	-1.741298	2.400839	1.314061	2.634073	1.506386	-0.211750	0.127214	
420.013	0.000595	-1.741283	2.401221	1.314565	2.633982	1.507576	-0.212787	0.127214	
421.019	0.000122	-1.741100	2.402396	1.315374	2.634058	1.507667	-0.213275	0.126909	
422.022	0.001328	-1.741283	2.402930	1.315526	2.634104	1.506798	-0.211963	0.127199	
423.020	-0.000610	-1.741390	2.403616	1.315740	2.634257	1.506218	-0.211414	0.126574	
424.020	0.000412	-1.741298	2.404318	1.316335	2.634257	1.506737	-0.211994	0.126589	
425.021	-0.001251	-1.740993	2.405188	1.317037	2.634073	1.507667	-0.212848	0.126772	
426.021	-0.001236	-1.741008	2.405234	1.317433	2.634073	1.507316	-0.213108	0.126909	
427.021	-0.000549	-1.741497	2.406348	1.317845	2.634440	1.506615	-0.211490	0.126757	
428.022	-0.000244	-1.741344	2.407263	1.318166	2.634470	1.506126	-0.211872	0.126711	
429.015	-0.000015	-1.741085	2.407614	1.318502	2.634470	1.506874	-0.212390	0.126436	
430.015	0.001175	-1.740963	2.408026	1.319265	2.634470	1.507576	-0.212924	0.126726	
431.007	0.001022	-1.740993	2.408560	1.319570	2.634623	1.507362	-0.213199	0.127214	
432.008	0.001541	-1.741146	2.409232	1.319829	2.634943	1.506447	-0.211978	0.126986	
433.017	0.002945	-1.741115	2.410407	1.320302	2.635111	1.506477	-0.211643	0.126711	
434.008	0.000854	-1.741054	2.410742	1.320836	2.634913	1.507255	-0.212696	0.127169	
435.008	-0.000473	-1.740856	2.411078	1.321431	2.634821	1.507378	-0.213306	0.127092	
436.008	-0.000320	-1.741100	2.411704	1.321859	2.635050	1.507469	-0.212375	0.127077	
437.009	0.000534	-1.741359	2.412619	1.322072	2.635096	1.506279	-0.212100	0.126863	
438.018	0.000763	-1.741298	2.413565	1.322423	2.635248	1.506309	-0.211841	0.126696	
439.014	0.003326	-1.740902	2.413931	1.323003	2.634959	1.507133	-0.212207	0.126726	
440.010	0.002731	-1.740917	2.414221	1.323522	2.635187	1.507530	-0.213153	0.126879	
441.011	0.002213	-1.740993	2.414786	1.324086	2.635508	1.506935	-0.212650	0.126848	
442.011	0.003586	-1.740963	2.415640	1.324147	2.635584	1.506264	-0.211246	0.126589	
443.019	0.002808	-1.740947	2.416556	1.324819	2.635737	1.506233	-0.211811	0.126970	
444.019	0.001694	-1.740871	2.416876	1.325185	2.635538	1.507545	-0.212726	0.127153	
445.020	0.000732	-1.740932	2.417517	1.325780	2.635721	1.507820	-0.213245	0.127321	
446.014	0.001144	-1.741207	2.418356	1.326253	2.635889	1.506599	-0.212207	0.126772	
447.014	0.001724	-1.741115	2.418997	1.326406	2.635844	1.506035	-0.211368	0.126574	
448.020	0.001312	-1.741100	2.419623	1.326772	2.635874	1.506523	-0.211856	0.126787	
449.014	0.000031	-1.740871	2.420203	1.327581	2.635737	1.507347	-0.212833	0.126741	
450.014	-0.000992	-1.740749	2.420538	1.327947	2.635828	1.508049	-0.213199	0.127062	
451.021	-0.000046	-1.740917	2.421454	1.328222	2.635889	1.506523	-0.212177	0.127123	
452.021	0.000397	-1.740978	2.422568	1.328481	2.636179	1.506538	-0.211185	0.126787	
453.022	-0.000168	-1.740871	2.422889	1.329107	2.636088	1.506462	-0.211902	0.126925	
454.022	-0.001709	-1.740856	2.423728	1.329717	2.636042	1.507332	-0.213092	0.127092	
455.022	-0.002197	-1.740657	2.424216	1.330404	2.636164	1.508049	-0.213092	0.127169	
456.007	-0.001816	-1.741161	2.425498	1.330694	2.636500	1.507057	-0.212131	0.127031	
457.007	0.003006	-1.741008	2.426291	1.330724	2.636515	1.506401	-0.211521	0.126802	
458.007	0.002197	-1.740947	2.426734	1.330999	2.636317	1.506706	-0.211765	0.126619	
459.014	0.000717	-1.740963	2.427329	1.331518	2.636362	1.507469	-0.212833	0.127184	
460.015	-0.000473	-1.741024	2.428214	1.332219	2.636469	1.507759	-0.212894	0.127520	
461.009	0.000900	-1.741069	2.429236	1.332372	2.636652	1.507179	-0.211917	0.126879	
462.009	0.001266	-1.741039	2.430320	1.332494	2.636790	1.506218	-0.211261	0.126619	
463.009	0.000076	-1.741008	2.431296	1.332952	2.636759	1.506721	-0.211933	0.126818	
464.010	-0.001190	-1.740780	2.431830	1.333578	2.636484	1.507713	-0.212848	0.126863	
465.010	-0.001190	-1.740642	2.432334	1.334203	2.636469	1.507606	-0.212772	0.127047	
466.010	-0.000946	-1.740780	2.433127	1.334310	2.636652	1.506782	-0.212253	0.126787	
467.011	-0.000275	-1.741192	2.434058	1.334417	2.636912	1.506355	-0.211566	0.126650	
468.011	-0.000641	-1.740978	2.434241	1.334493	2.636622	1.506752	-0.211917	0.126528	
469.014	-0.001541	-1.740673	2.434623	1.334875	2.636515	1.507759	-0.213199	0.127459	
470.012	0.002304	-1.740566	2.434913	1.334768	2.636652	1.507530	-0.212757	0.126848	
471.012	0.003525	-1.740612	2.435782	1.334539	2.636713	1.506737	-0.211887	0.126650	
472.012	0.003632	-1.741237	2.435905	1.334493	2.636912	1.506004	-0.211627	0.126619	
473.013	0.003006	-1.741039	2.435889	1.334661	2.636622	1.507027	-0.212284	0.126787	
474.013	0.001968	-1.740841	2.436545	1.335134	2.636530	1.507332	-0.212985	0.127062	
475.013	0.002014	-1.741130	2.436622	1.335103	2.636622	1.507530	-0.213047	0.127092	
476.014	0.003036	-1.740780	2.437095	1.334691	2.636530	1.506279	-0.211902	0.126772	
477.014	0.003326	-1.741024	2.437675	1.334936	2.636667	1.506401	-0.211688	0.126711	
478.014	0.002274	-1.740917	2.437980	1.334951	2.636576	1.507103	-0.212360	0.127199	
479.014	0.002014	-1.740642	2.438361	1.335256	2.636347	1.507698	-0.213214	0.127321	
480.015	0.001678	-1.740718	2.438468	1.335470	2.636423	1.507225	-0.212802	0.127398	
481.015	0.003265	-1.740932	2.439399	1.335180	2.636500	1.506447	-0.211872	0.127260	
482.015	0.002625	-1.740932	2.439689	1.335073	2.636393	1.506538	-0.211704	0.127260	
483.015	0.002289	-1.740642	2.439948	1.335393	2.636225	1.507210	-0.212558	0.127398	
484.016	0.001205	-1.740551	2.440299	1.335775	2.635935	1.507912	-0.213077	0.127535	
485.016	0.001526	-1.740825	2.440528	1.335821	2.636179	1.507301	-0.212879	0.127581	
486.016	0.002747	-1.741069	2.441382	1.335897	2.636362	1.506798	-0.211765	0.127337	
487.017	0.002899	-1.740917	2.441672	1.335821	2.636240	1.506096	-0.211688	0.127306	
488.017	0.001740	-1.740673	2.442008	1.336156	2.636378	1.507271	-0.212635	0.127550	
489.014	0.000443	-1.740841	2.442557	1.336339	2.636194	1.507362	-0.213275	0.127489	
490.015	0.001236	-1.740703	2.442801	1.336355	2.636118	1.507179	-0.212360	0.127535	
491.018	0.002258	-1.740612	2.443366	1.336385	2.636500	1.506111	-0.211688	0.127352	
492.018	0.001404	-1.741130	2.443931	1.336400	2.636362	1.506523	-0.211948	0.127291	
493.018	0.000793	-1.740581	2.443870	1.336629	2.636103	1.507057	-0.213077	0.127550	
494.019	0.000153	-1.740444	2.444373	1.336889	2.636286	1.507835	-0.213489	0.127642	
495.019	0.000626	-1.740978	2.444510	1.336614	2.636408	1.507149	-0.212345	0.127565	
496.019	0.001877	-1.740856	2.445167	1.336797	2.636347	1.505974	-0.211429	0.127443	
497.020	0.001678	-1.740841	2.445838	1.337041	2.636317	1.506309	-0.211887	0.127428	
498.020	0.000534	-1.740459	2.445960	1.337118	2.636072	1.507271	-0.213031	0.127565	
499.015	-0.000305	-1.740596	2.446418	1.337499	2.636301	1.507713	-0.213123	0.127367	
500.022	0.000763	-1.740886	2.446616	1.337545	2.636439	1.507011	-0.212162	0.127337	
501.022	0.001129	-1.740841	2.447043	1.337621	2.636469	1.506538	-0.211597	0.127245	
502.022	-0.000244	-1.740795	2.447608	1.337865	2.636347	1.506798	-0.211963	0.127138	
503.022	0.000458	-1.740596	2.447761	1.338308	2.636271	1.507378	-0.212787	0.127428	
504.023	-0.001755	-1.740917	2.447989	1.338720	2.636256	1.507454	-0.213077	0.127184	
505.023	-0.000153	-1.740841	2.448600	1.338979	2.636606	1.506492	-0.212238	0.127016	
506.023	-0.000092	-1.740963	2.449180	1.339193	2.636820	1.506508	-0.211582	0.126940	
507.024	-0.000244	-1.740764	2.449363	1.339483	2.636469	1.506508	-0.212146	0.126848	
508.024	-0.001404	-1.740780	2.449500	1.340230	2.636652	1.507561	-0.212802	0.127047	
509.046	-0.001678	-1.740795	2.449973	1.340703	2.636667	1.507637	-0.213260	0.127626	
510.062	-0.002914	-1.740841	2.450202	1.340902	2.636927	1.506920	-0.212390	0.127428	
511.078	-0.001022	-1.740871	2.450858	1.341054	2.637171	1.506340	-0.211734	0.127306	
512.089	0.002655	-1.740795	2.451316	1.341314	2.637095	1.506264	-0.212085	0.127230	
513.089	0.001312	-1.740429	2.451346	1.341863	2.637125	1.507362	-0.212955	0.127535	
514.090	0.000504	-1.740581	2.451728	1.342626	2.637232	1.507835	-0.213169	0.127535	
515.090	0.001526	-1.740673	2.452369	1.342519	2.637385	1.507118	-0.212116	0.127321	
516.090	0.001648	-1.740856	2.453178	1.342687	2.637675	1.506431	-0.211353	0.126940	
517.090	0.000656	-1.740841	2.454048	1.343511	2.637751	1.506660	-0.212284	0.127108	
518.091	0.000275	-1.740520	2.454124	1.343938	2.637568	1.507698	-0.213108	0.127092	
519.093	-0.000580	-1.740490	2.454826	1.344488	2.637781	1.507667	-0.213214	0.126909	
520.093	0.000153	-1.740825	2.455543	1.344869	2.637888	1.506279	-0.212390	0.126726	
521.093	0.000320	-1.740917	2.456489	1.345083	2.638132	1.506615	-0.211551	0.126619	
522.093	-0.000900	-1.740734	2.457130	1.345724	2.637964	1.506935	-0.211978	0.126833	
523.093	-0.002167	-1.740520	2.457634	1.346792	2.638148	1.507591	-0.212726	0.127047	
524.096	-0.002731	-1.740551	2.458229	1.347265	2.638026	1.507408	-0.213001	0.127184	
525.097	0.002014	-1.740993	2.459251	1.347616	2.638438	1.506950	-0.211994	0.127108	
526.097	0.001968	-1.740886	2.460045	1.347890	2.638575	1.505882	-0.211597	0.127016	
527.097	0.001434	-1.740657	2.460640	1.348699	2.638514	1.506996	-0.212162	0.127214	
528.097	-0.000168	-1.740306	2.461296	1.349584	2.638438	1.507454	-0.213230	0.127565	
529.093	-0.000641	-1.740535	2.461967	1.349950	2.638514	1.507545	-0.213077	0.127092	
530.098	0.000320	-1.740642	2.462486	1.350545	2.638788	1.506523	-0.211917	0.127260	
531.098	-0.000214	-1.740856	2.463539	1.350988	2.638849	1.506126	-0.211902	0.127230	
532.098	-0.000793	-1.740474	2.464317	1.351659	2.638865	1.507042	-0.212299	0.127489	
533.099	-0.002197	-1.740352	2.464927	1.352132	2.638788	1.507927	-0.213291	0.127275	
534.099	-0.002701	-1.740551	2.465645	1.352620	2.639094	1.507347	-0.213108	0.127489	
535.099	0.002533	-1.740688	2.466408	1.353032	2.639338	1.506126	-0.211688	0.127260	
536.100	0.002228	-1.740551	2.467216	1.353567	2.639689	1.506309	-0.211795	0.127550	
537.100	0.000610	-1.740551	2.467308	1.354253	2.639368	1.507133	-0.212543	0.127474	
538.100	-0.000504	-1.740444	2.468010	1.354650	2.639277	1.507759	-0.213199	0.127810	
539.093	-0.000443	-1.740535	2.468971	1.355321	2.639521	1.506904	-0.212284	0.127611	
540.093	0.000595	-1.740703	2.469688	1.355657	2.639811	1.506279	-0.211643	0.127520	
541.085	0.000000	-1.740490	2.470527	1.355855	2.639658	1.506233	-0.212024	0.126650	
542.086	-0.000458	-1.740337	2.470863	1.356695	2.639811	1.507500	-0.212589	0.127031	
543.086	-0.002060	-1.740551	2.471596	1.357549	2.639902	1.507667	-0.213275	0.127169	
544.086	-0.001846	-1.740734	2.472282	1.357870	2.640024	1.507072	-0.212375	0.126909	
545.086	0.003052	-1.740795	2.473320	1.358190	2.640330	1.506386	-0.211795	0.126802	
546.087	0.001984	-1.740657	2.473854	1.358617	2.640253	1.506584	-0.211582	0.126818	
547.087	0.001083	-1.740322	2.474495	1.359151	2.640360	1.507316	-0.212390	0.126909	
548.087	0.000458	-1.740413	2.474968	1.359747	2.640314	1.507912	-0.213092	0.127138	
549.093	0.000702	-1.740245	2.475380	1.360220	2.640558	1.507164	-0.212558	0.127626	
550.093	0.001358	-1.740718	2.476616	1.360479	2.640742	1.506355	-0.211795	0.126879	
551.089	0.000793	-1.740444	2.476906	1.361014	2.640497	1.506843	-0.211978	0.126726	
552.089	-0.000504	-1.740352	2.477257	1.361456	2.640543	1.507637	-0.212741	0.127047	
553.096	-0.002319	-1.740337	2.478325	1.362005	2.640574	1.507683	-0.213306	0.127077	
554.090	-0.001083	-1.740474	2.478691	1.362372	2.640650	1.506981	-0.212100	0.126909	
555.090	-0.000351	-1.740688	2.479652	1.362723	2.641047	1.506386	-0.211811	0.126894	
556.090	-0.001694	-1.740383	2.480247	1.363089	2.641078	1.506706	-0.211750	0.126894	
557.091	-0.003006	-1.740230	2.480552	1.363974	2.640742	1.507011	-0.212909	0.127092	
558.091	-0.003906	-1.740383	2.481056	1.364355	2.640971	1.507469	-0.213031	0.127123	
559.092	0.001556	-1.740245	2.481926	1.364630	2.641184	1.506782	-0.212314	0.127337	
560.092	0.002411	-1.740490	2.482521	1.365011	2.641505	1.506065	-0.211566	0.127245	
561.092	0.001160	-1.740322	2.483253	1.365591	2.641322	1.506798	-0.212467	0.127306	
562.092	-0.000076	-1.740276	2.483787	1.366186	2.641337	1.507622	-0.212589	0.127611	
563.095	-0.000717	-1.740215	2.484337	1.366781	2.641673	1.507316	-0.213199	0.127733	
564.095	-0.000107	-1.740444	2.484856	1.366858	2.641688	1.506554	-0.211948	0.127550	
565.096	0.000153	-1.740490	2.485603	1.367499	2.641795	1.506172	-0.211780	0.127474	
566.096	-0.001221	-1.740306	2.486153	1.367834	2.641810	1.506676	-0.212497	0.127535	
567.096	-0.001968	-1.740108	2.486656	1.368734	2.641642	1.507378	-0.213153	0.127703	
568.097	0.002213	-1.740322	2.487541	1.369162	2.641871	1.507393	-0.213092	0.127520	
569.092	0.002640	-1.740398	2.488441	1.369528	2.642237	1.506386	-0.211704	0.127474	
570.093	0.002899	-1.740566	2.489357	1.369909	2.642420	1.506187	-0.211643	0.127337	
571.097	0.002289	-1.740322	2.489632	1.370504	2.642268	1.506966	-0.212619	0.127077	
572.098	-0.000702	-1.740139	2.490501	1.371252	2.642420	1.507622	-0.212879	0.127077	
573.098	0.000275	-1.740001	2.490990	1.371512	2.642466	1.507332	-0.212467	0.127047	
574.086	0.000732	-1.740215	2.492012	1.371847	2.642756	1.506462	-0.211795	0.126909	
575.087	0.000977	-1.740429	2.492699	1.372442	2.642725	1.506172	-0.211093	0.126650	
576.098	-0.000809	-1.740032	2.493340	1.373098	2.642664	1.506828	-0.212467	0.126925	
577.099	-0.002014	-1.740108	2.493858	1.373678	2.642756	1.507774	-0.212787	0.127077	
578.099	-0.001816	-1.740245	2.494331	1.374167	2.642725	1.506966	-0.212863	0.127214	
579.092	0.003448	-1.740322	2.495308	1.374151	2.643107	1.506538	-0.211627	0.127001	
580.092	0.003067	-1.740352	2.496162	1.374655	2.643229	1.506355	-0.211811	0.127062	
581.099	0.001953	-1.740123	2.496727	1.375403	2.643122	1.507194	-0.212818	0.127230	
582.099	0.000092	-1.739818	2.497322	1.376074	2.643031	1.507942	-0.213184	0.127611	
583.100	0.000275	-1.740169	2.497704	1.376379	2.643168	1.507378	-0.212818	0.127703	
584.100	0.001205	-1.740306	2.498756	1.376577	2.643717	1.506004	-0.211566	0.127520	
585.100	0.000793	-1.740322	2.498985	1.377035	2.643580	1.506294	-0.211872	0.127428	
586.100	-0.000122	-1.740200	2.499626	1.377676	2.643397	1.507194	-0.212741	0.127779	
587.101	-0.001389	-1.740169	2.500084	1.378195	2.643427	1.507698	-0.212924	0.127901	
588.101	-0.001556	-1.740078	2.500832	1.378485	2.643519	1.507072	-0.212894	0.127825	
589.108	0.003876	-1.740184	2.501961	1.378821	2.643961	1.506233	-0.211551	0.126970	
590.102	0.004028	-1.740139	2.502113	1.379339	2.644053	1.506447	-0.211780	0.127535	
591.102	0.001740	-1.739956	2.502693	1.379950	2.643885	1.507179	-0.212741	0.127871	
592.102	0.001022	-1.739849	2.503151	1.380530	2.643885	1.507301	-0.213123	0.127779	
593.102	0.001907	-1.740001	2.503822	1.380850	2.644175	1.506767	-0.212192	0.127565	
594.103	0.002274	-1.740154	2.504723	1.381125	2.644373	1.506477	-0.211505	0.127337	
595.103	0.001572	-1.740306	2.505165	1.381598	2.644267	1.506279	-0.212162	0.127413	
596.103	0.000107	-1.739864	2.505730	1.382239	2.644343	1.507789	-0.212879	0.127565	
597.104	-0.000656	-1.739956	2.506508	1.382742	2.644267	1.507927	-0.213275	0.127550	
598.104	-0.000137	-1.740123	2.507195	1.382971	2.644465	1.506706	-0.212039	0.127352	
599.108	0.000504	-1.740108	2.508202	1.383413	2.644801	1.506203	-0.211627	0.127199	
600.108	-0.000763	-1.739772	2.508858	1.383841	2.644602	1.506370	-0.212070	0.127337	
601.108	-0.001663	-1.740093	2.509254	1.384466	2.644602	1.507393	-0.212970	0.127459	
602.105	-0.002869	-1.739772	2.509773	1.385183	2.644755	1.507561	-0.213031	0.127245	
603.105	0.000870	-1.740108	2.510643	1.385260	2.644984	1.506782	-0.212192	0.127077	
604.106	0.003220	-1.740139	2.511360	1.385519	2.645304	1.506157	-0.211277	0.126925	
605.106	0.002136	-1.740139	2.512077	1.386084	2.645121	1.506660	-0.211887	0.126909	
606.109	0.000336	-1.739879	2.512611	1.386877	2.645304	1.507820	-0.212573	0.127077	
607.110	-0.000183	-1.739757	2.513222	1.387488	2.645045	1.507652	-0.213199	0.127108	
608.107	0.000580	-1.739971	2.513985	1.387732	2.645472	1.506599	-0.212177	0.126787	
609.108	0.000931	-1.740169	2.514900	1.388205	2.645701	1.506309	-0.211551	0.126772	
610.108	0.000061	-1.740078	2.515358	1.388571	2.645442	1.506874	-0.211917	0.126833	
611.113	-0.001587	-1.739895	2.515984	1.389441	2.645442	1.507423	-0.212970	0.127413	
612.113	-0.002060	-1.739772	2.516381	1.389792	2.645609	1.507515	-0.212711	0.127398	
613.113	-0.001389	-1.740017	2.517418	1.389990	2.645823	1.506828	-0.212039	0.127459	
614.113	0.000076	-1.740017	2.518059	1.390173	2.645915	1.506370	-0.211704	0.127214	
615.114	0.002655	-1.739818	2.518822	1.390982	2.646098	1.507210	-0.212772	0.127352	
616.114	0.001068	-1.739650	2.518944	1.391562	2.645869	1.507713	-0.213367	0.127687	
617.114	0.001129	-1.739879	2.519646	1.392050	2.646098	1.507179	-0.212650	0.127626	
618.115	0.002136	-1.739818	2.520592	1.392279	2.646159	1.506645	-0.212070	0.127581	
619.108	0.002289	-1.739833	2.521630	1.392722	2.646433	1.506416	-0.211887	0.126741	
620.116	0.000427	-1.739696	2.521843	1.393271	2.646235	1.507469	-0.212772	0.127489	
621.131	-0.000549	-1.739696	2.522148	1.393851	2.646464	1.507500	-0.213474	0.127855	
622.131	-0.000809	-1.739772	2.522972	1.394095	2.646449	1.506966	-0.212543	0.127749	
623.131	-0.000198	-1.740123	2.523827	1.394644	2.646662	1.506187	-0.211627	0.127596	
624.132	-0.000443	-1.739986	2.524758	1.394965	2.646723	1.506538	-0.211643	0.127611	
625.132	-0.000977	-1.739864	2.525063	1.395606	2.646830	1.507103	-0.212421	0.127626	
626.132	0.002457	-1.739696	2.525688	1.396353	2.646922	1.507820	-0.213062	0.127962	
627.133	0.001785	-1.739620	2.526406	1.396582	2.646891	1.507164	-0.212604	0.127855	
628.133	0.002106	-1.739986	2.527214	1.396887	2.647242	1.506523	-0.211566	0.127504	
629.141	0.001907	-1.739940	2.527870	1.397238	2.647257	1.506187	-0.211429	0.127504	
630.141	0.000671	-1.739711	2.528527	1.397818	2.647166	1.507103	-0.212802	0.127779	
631.132	-0.000381	-1.739605	2.528939	1.398444	2.647227	1.507713	-0.213260	0.127932	
632.135	-0.000214	-1.739803	2.529824	1.398703	2.647242	1.506920	-0.212558	0.127275	
633.135	0.000458	-1.739879	2.530724	1.399069	2.647425	1.506462	-0.211551	0.127062	
634.135	-0.000076	-1.739940	2.531258	1.399542	2.647578	1.506508	-0.212314	0.127184	
635.136	-0.001831	-1.739757	2.531731	1.400137	2.647410	1.507606	-0.212726	0.127382	
636.136	-0.002304	-1.739803	2.532234	1.400763	2.647578	1.507637	-0.213047	0.127535	
637.136	0.003021	-1.739788	2.532921	1.401007	2.647868	1.507301	-0.212482	0.127260	
638.137	0.003326	-1.739864	2.533638	1.401236	2.648020	1.506523	-0.211124	0.127367	
639.140	0.001709	-1.739895	2.534310	1.401862	2.648097	1.506615	-0.212100	0.127504	
640.140	0.000992	-1.739498	2.534691	1.402625	2.647837	1.507713	-0.212909	0.127794	
641.139	0.000214	-1.739559	2.535301	1.402930	2.647852	1.507545	-0.213397	0.127749	
642.139	0.000473	-1.739696	2.536125	1.403250	2.648325	1.506416	-0.211841	0.127565	
643.139	0.001114	-1.739788	2.536873	1.403662	2.648432	1.506294	-0.211475	0.127535	
644.143	-0.000320	-1.739818	2.537438	1.404212	2.648585	1.506950	-0.212329	0.127581	
645.143	-0.001358	-1.739681	2.537865	1.404852	2.648417	1.507286	-0.213062	0.127687	
646.144	-0.001724	-1.739528	2.538460	1.405310	2.648402	1.507667	-0.212680	0.127626	
647.144	-0.001083	-1.739757	2.539315	1.405341	2.648661	1.506843	-0.212284	0.127321	
648.144	-0.000992	-1.739940	2.540245	1.405951	2.648829	1.506630	-0.211429	0.127367	
649.140	-0.001633	-1.739849	2.540596	1.406455	2.648814	1.506904	-0.212329	0.127642	
650.145	-0.001511	-1.739498	2.541237	1.407141	2.648829	1.507698	-0.213047	0.127535	
651.146	0.000916	-1.739376	2.542000	1.407462	2.648875	1.507652	-0.212955	0.127352	
652.146	0.001846	-1.739757	2.542946	1.407797	2.649210	1.506630	-0.211719	0.127031	
653.146	0.002319	-1.739650	2.543740	1.408103	2.649439	1.506142	-0.211734	0.127062	
654.146	0.001007	-1.739711	2.544502	1.408774	2.649317	1.507423	-0.212558	0.127092	
655.147	-0.000259	-1.739528	2.544716	1.409155	2.649073	1.507683	-0.212955	0.127382	
656.147	-0.001389	-1.739498	2.545372	1.409415	2.649424	1.507606	-0.212955	0.127428	
657.147	-0.000061	-1.739574	2.546334	1.410040	2.649668	1.506508	-0.211765	0.127230	
658.132	0.000000	-1.739574	2.546746	1.410254	2.649622	1.506340	-0.211429	0.127199	
659.140	-0.001358	-1.739437	2.547173	1.410803	2.649622	1.507378	-0.212375	0.127596	
660.140	-0.002579	-1.739528	2.548074	1.411490	2.649531	1.507805	-0.213092	0.127474	
661.132	-0.002304	-1.739483	2.548653	1.412070	2.650034	1.507378	-0.212818	0.127962	
662.134	0.003433	-1.739559	2.549340	1.412070	2.649958	1.506264	-0.211460	0.127733	
663.134	0.002716	-1.739666	2.550027	1.412421	2.650080	1.506248	-0.211566	0.127687	
664.135	0.001434	-1.739528	2.550423	1.413306	2.650187	1.507194	-0.212558	0.127626	
665.135	0.000687	-1.739315	2.551018	1.413809	2.650202	1.507667	-0.213184	0.127596	
666.135	-0.000137	-1.739544	2.551751	1.414496	2.650492	1.507286	-0.212482	0.127459	
667.136	0.000763	-1.739437	2.552300	1.414557	2.650446	1.506370	-0.211627	0.127153	
668.136	0.001129	-1.739513	2.553216	1.414877	2.650538	1.506966	-0.211582	0.127199	
669.140	-0.000702	-1.739437	2.553597	1.415869	2.650675	1.507316	-0.212665	0.127993	
670.141	-0.001266	-1.739086	2.554024	1.416159	2.650553	1.507561	-0.213214	0.127932	
671.137	-0.000244	-1.739330	2.555062	1.416754	2.650858	1.506966	-0.212406	0.127214	
672.137	-0.000488	-1.739681	2.555779	1.416785	2.650919	1.506599	-0.211719	0.127077	
673.138	-0.000900	-1.739467	2.556283	1.417197	2.650919	1.506431	-0.211811	0.127184	
674.138	0.001770	-1.739528	2.556924	1.417807	2.650874	1.507530	-0.213138	0.127489	
675.138	0.001160	-1.739254	2.557153	1.418341	2.651026	1.507591	-0.213214	0.127718	
676.138	0.001083	-1.739345	2.558038	1.418662	2.651209	1.506538	-0.212100	0.127733	
677.139	0.001877	-1.739620	2.558861	1.419196	2.651515	1.506172	-0.211597	0.127626	
678.139	0.001099	-1.739391	2.559212	1.419562	2.651362	1.506523	-0.212009	0.127642	
679.140	-0.000366	-1.739360	2.559853	1.420081	2.651240	1.507362	-0.212573	0.127916	
680.140	-0.000153	-1.739238	2.560372	1.420752	2.651453	1.507637	-0.212818	0.127657	
681.141	-0.000961	-1.739406	2.561089	1.421072	2.651713	1.506676	-0.211521	0.127489	
682.141	-0.000534	-1.739544	2.561883	1.421134	2.651911	1.506538	-0.211154	0.127230	
683.141	-0.000443	-1.739269	2.562585	1.421683	2.651667	1.506538	-0.211933	0.127123	
684.142	0.002823	-1.739177	2.562920	1.422217	2.651728	1.507805	-0.213352	0.127321	
685.142	0.002075	-1.739101	2.563668	1.422736	2.651743	1.507454	-0.212894	0.127169	
686.142	0.002121	-1.739391	2.564767	1.423118	2.651988	1.506691	-0.211811	0.126970	
687.142	0.002060	-1.739559	2.565499	1.423682	2.652293	1.506142	-0.211261	0.126863	
688.143	0.000641	-1.739193	2.565789	1.423911	2.652125	1.506904	-0.212146	0.127016	
689.140	0.000153	-1.739009	2.566582	1.424781	2.652110	1.507561	-0.213092	0.127275	
690.141	-0.000824	-1.739177	2.566888	1.425132	2.652171	1.507255	-0.212543	0.127184	
691.144	0.000214	-1.739193	2.567696	1.425284	2.652400	1.506065	-0.212131	0.127626	
692.144	0.000580	-1.739483	2.568825	1.425849	2.652644	1.506477	-0.211658	0.127443	
693.144	-0.000656	-1.739284	2.569161	1.426825	2.652552	1.506798	-0.212528	0.127687	
694.144	-0.002625	-1.739101	2.569604	1.427115	2.652552	1.507835	-0.213062	0.127932	
695.145	0.001587	-1.739238	2.570290	1.427497	2.652659	1.506920	-0.212863	0.127901	
696.145	0.002747	-1.739238	2.571191	1.427894	2.652934	1.506721	-0.211536	0.127657	
697.145	0.001450	-1.739330	2.572076	1.428290	2.653208	1.506126	-0.211795	0.127474	
698.146	0.001022	-1.739116	2.572472	1.428885	2.653101	1.506874	-0.212787	0.127504	
699.140	-0.000061	-1.739147	2.572762	1.429496	2.652964	1.507667	-0.212985	0.127962	
700.141	-0.000351	-1.738933	2.573556	1.429923	2.652949	1.507255	-0.212665	0.127794	
701.146	0.000595	-1.739330	2.575005	1.430060	2.653483	1.506309	-0.211688	0.127184	
702.147	0.000534	-1.739376	2.575539	1.430594	2.653590	1.506492	-0.211460	0.127077	
703.147	-0.001297	-1.738964	2.576058	1.431266	2.653559	1.507194	-0.212650	0.127367	
704.147	-0.002441	-1.739101	2.576394	1.431937	2.653590	1.507789	-0.213108	0.127810	
705.132	-0.001923	-1.739238	2.577126	1.432029	2.653727	1.506737	-0.212635	0.127672	
706.132	0.002975	-1.739147	2.577630	1.432319	2.653864	1.506355	-0.211963	0.127459	
707.132	0.002701	-1.738887	2.578592	1.432868	2.653941	1.506477	-0.211811	0.127718	
708.133	0.001648	-1.738964	2.578943	1.433432	2.654063	1.507225	-0.212665	0.127855	
709.140	0.000458	-1.738826	2.579660	1.434028	2.653956	1.507851	-0.213260	0.127367	
710.134	0.000702	-1.739116	2.579828	1.434363	2.654078	1.506355	-0.212024	0.128038	
711.134	0.001068	-1.739147	2.581003	1.434668	2.654200	1.506157	-0.211124	0.127871	
712.134	0.000351	-1.738994	2.581506	1.435050	2.654124	1.506554	-0.212284	0.127672	
713.135	-0.001144	-1.738933	2.581857	1.435874	2.654292	1.507667	-0.212924	0.127840	
714.135	-0.001740	-1.739101	2.582803	1.436225	2.654582	1.507713	-0.212741	0.127901	
715.135	-0.000565	-1.739147	2.583338	1.436683	2.654948	1.506996	-0.211780	0.127581	
716.135	0.002747	-1.739177	2.584192	1.436850	2.654612	1.506279	-0.211734	0.127398	
717.136	0.003693	-1.738933	2.584635	1.437400	2.654643	1.506828	-0.212070	0.127352	
718.136	0.001709	-1.738948	2.585291	1.438147	2.654734	1.507454	-0.213184	0.127474	
719.140	0.001129	-1.738964	2.585916	1.438620	2.654948	1.507667	-0.212589	0.127474	
720.140	0.002014	-1.738903	2.586786	1.438819	2.654963	1.506584	-0.211795	0.127459	
721.141	0.002182	-1.739208	2.587702	1.439093	2.655222	1.506111	-0.211521	0.127291	
722.137	0.001358	-1.738918	2.588281	1.439444	2.655131	1.506996	-0.211933	0.127077	
723.138	-0.000427	-1.738826	2.588739	1.440223	2.655116	1.507622	-0.212863	0.127199	
724.138	-0.000626	-1.738689	2.589151	1.440635	2.655344	1.507591	-0.213123	0.127199	
725.138	-0.000229	-1.738903	2.590112	1.441138	2.655406	1.506645	-0.212100	0.127337	
726.141	-0.000336	-1.739071	2.590830	1.441352	2.655436	1.506065	-0.211612	0.127062	
727.142	-0.001312	-1.739009	2.591364	1.441932	2.655573	1.506798	-0.212238	0.127337	
728.140	-0.002045	-1.738872	2.592249	1.442756	2.655512	1.507561	-0.213260	0.127306	
729.140	-0.002151	-1.738765	2.592478	1.443183	2.655650	1.507622	-0.212940	0.127489	
730.140	0.002625	-1.738872	2.593302	1.443274	2.655909	1.506904	-0.211719	0.127275	
731.144	0.002747	-1.739101	2.593607	1.443488	2.656107	1.506554	-0.211566	0.127749	
732.145	0.001236	-1.738887	2.593927	1.444159	2.655848	1.507530	-0.212848	0.127810	
733.145	-0.000275	-1.738643	2.594782	1.444693	2.656046	1.507515	-0.213291	0.127733	
734.145	0.000031	-1.738750	2.595178	1.445136	2.656184	1.506981	-0.212314	0.127565	
735.146	0.000839	-1.738948	2.596536	1.445228	2.656519	1.506492	-0.211536	0.127291	
736.146	0.000717	-1.738826	2.596948	1.445624	2.656504	1.506615	-0.211826	0.127153	
737.146	-0.000977	-1.738643	2.597620	1.446128	2.656321	1.507469	-0.212680	0.127260	
738.147	-0.003433	-1.738720	2.598306	1.446784	2.656428	1.507683	-0.213214	0.127321	
739.140	0.002579	-1.738826	2.598917	1.447287	2.656596	1.507057	-0.212406	0.127382	
740.133	0.004105	-1.738857	2.599695	1.447532	2.656764	1.506615	-0.211795	0.127459	
741.147	0.003525	-1.738720	2.600504	1.448005	2.656657	1.506554	-0.211658	0.126986	
742.147	0.001755	-1.738475	2.600992	1.448707	2.656825	1.507515	-0.212985	0.127443	
743.132	0.001068	-1.738338	2.601114	1.449118	2.656855	1.507728	-0.213352	0.127611	
744.132	0.001205	-1.738720	2.602197	1.449439	2.657176	1.507210	-0.212421	0.127520	
745.132	0.002975	-1.738536	2.603021	1.449790	2.657404	1.506233	-0.211673	0.127382	
746.133	0.001266	-1.738842	2.603494	1.450324	2.657313	1.506630	-0.211948	0.127367	
747.133	-0.000305	-1.738704	2.603800	1.450873	2.657237	1.507301	-0.213031	0.127825	
748.133	-0.001572	-1.738613	2.604547	1.451667	2.657191	1.507576	-0.213077	0.128054	
749.140	0.000122	-1.738842	2.605509	1.451941	2.657740	1.506843	-0.212253	0.127230	
750.140	-0.000137	-1.738979	2.606241	1.452124	2.657633	1.506157	-0.211658	0.127047	
751.141	-0.001022	-1.738842	2.607111	1.452674	2.657649	1.506645	-0.211826	0.127169	
752.136	-0.002213	-1.738536	2.607126	1.453560	2.657710	1.507439	-0.212924	0.127810	
753.136	-0.001953	-1.738414	2.607218	1.453758	2.657725	1.507362	-0.213001	0.127703	
754.136	0.001923	-1.738552	2.608209	1.453926	2.657969	1.506691	-0.211719	0.127443	
755.137	0.003082	-1.738765	2.609415	1.454368	2.658061	1.506081	-0.211322	0.127275	
756.141	0.002930	-1.738674	2.610117	1.454948	2.658061	1.506477	-0.211902	0.127230	
757.141	0.000214	-1.738582	2.610667	1.455375	2.658152	1.507820	-0.212635	0.127275	
758.139	-0.000153	-1.738384	2.610972	1.455864	2.658076	1.508247	-0.213001	0.127245	
759.140	0.000580	-1.738598	2.611719	1.456230	2.658289	1.506431	-0.211643	0.127153	
760.140	0.000839	-1.738674	2.612635	1.456764	2.658473	1.506279	-0.211414	0.127184	
761.143	-0.000473	-1.738506	2.613154	1.457267	2.658366	1.506676	-0.212421	0.127520	
762.144	-0.001495	-1.738353	2.613322	1.457634	2.658305	1.507789	-0.213123	0.127764	
763.144	-0.002075	-1.738598	2.613840	1.458290	2.658488	1.507149	-0.213291	0.127810	
764.144	0.003433	-1.738689	2.614847	1.458397	2.658778	1.506264	-0.212024	0.127764	
765.145	0.003723	-1.738704	2.615488	1.458763	2.659144	1.506142	-0.211688	0.127749	
766.145	0.002106	-1.738582	2.616038	1.459587	2.658915	1.507255	-0.212543	0.127901	
767.145	0.001190	-1.738353	2.616358	1.459800	2.658823	1.507698	-0.213169	0.128130	
768.146	0.000153	-1.738628	2.616999	1.460472	2.659220	1.507301	-0.212253	0.128222	
769.140	0.001175	-1.738460	2.618052	1.460731	2.659419	1.506355	-0.211719	0.127443	
770.147	0.001251	-1.738689	2.618769	1.461082	2.659510	1.506508	-0.211780	0.127337	
771.132	-0.000351	-1.738262	2.619181	1.461570	2.659312	1.507225	-0.212863	0.127489	
772.132	-0.001068	-1.738353	2.619669	1.462272	2.659480	1.507622	-0.212726	0.127520	
773.147	-0.001022	-1.738567	2.620478	1.462516	2.659297	1.507240	-0.212467	0.127810	
774.147	-0.000244	-1.738613	2.621165	1.462684	2.659434	1.506584	-0.211704	0.127611	
775.147	-0.001892	-1.738475	2.622111	1.463340	2.659556	1.506187	-0.211856	0.127443	
776.139	-0.002274	-1.738384	2.622294	1.463920	2.659693	1.507072	-0.212894	0.127794	
777.139	0.001114	-1.738323	2.622874	1.464515	2.659785	1.507774	-0.213047	0.128038	
778.147	0.000290	-1.738582	2.623621	1.464790	2.659922	1.506996	-0.212329	0.127443	
779.141	0.002533	-1.738536	2.624659	1.465126	2.660319	1.506142	-0.211429	0.127825	
780.141	0.001816	-1.738628	2.625040	1.465446	2.660243	1.506264	-0.211933	0.127626	
781.142	0.000366	-1.738414	2.625361	1.466087	2.660014	1.507408	-0.212924	0.127749	
782.134	-0.000946	-1.738201	2.626093	1.466423	2.660059	1.507683	-0.213092	0.128054	
783.147	-0.000626	-1.738353	2.626993	1.466987	2.660227	1.507011	-0.212512	0.127596	
784.132	-0.000183	-1.738506	2.627909	1.467170	2.660578	1.506523	-0.211231	0.127321	
785.132	-0.000641	-1.738536	2.628489	1.467659	2.660517	1.506843	-0.211841	0.127214	
786.133	-0.002274	-1.738338	2.628992	1.468238	2.660395	1.507652	-0.213016	0.127550	
787.133	-0.002991	-1.738155	2.629725	1.468818	2.660456	1.507530	-0.213306	0.127672	
788.133	0.001694	-1.738369	2.630579	1.468879	2.660883	1.506798	-0.212406	0.127611	
789.140	0.002182	-1.738338	2.631342	1.469551	2.661143	1.506355	-0.211460	0.127169	
790.140	0.001892	-1.738018	2.631586	1.470161	2.660883	1.507042	-0.212146	0.127413	
791.135	0.000427	-1.738231	2.632044	1.470726	2.661128	1.507637	-0.213291	0.127703	
792.135	-0.000336	-1.738262	2.632700	1.471122	2.660929	1.507469	-0.212863	0.127550	
793.135	0.000229	-1.738216	2.633448	1.471305	2.661128	1.506752	-0.211978	0.127367	
794.135	0.000549	-1.738430	2.634211	1.471641	2.661524	1.506203	-0.211780	0.127214	
795.136	-0.000565	-1.738231	2.634470	1.472343	2.661448	1.507286	-0.212360	0.127291	
796.136	-0.002075	-1.738109	2.635035	1.472816	2.661128	1.507637	-0.213336	0.127459	
797.136	-0.002182	-1.738094	2.635721	1.473289	2.661417	1.507683	-0.212482	0.127733	
798.137	0.003647	-1.738414	2.636683	1.473350	2.661677	1.506645	-0.211887	0.127733	
799.139	0.003632	-1.738277	2.637125	1.473976	2.661814	1.506248	-0.211490	0.127886	
800.138	0.001846	-1.738186	2.637842	1.474662	2.661921	1.507072	-0.212619	0.127626	
801.138	0.001160	-1.738063	2.638132	1.475135	2.661799	1.507316	-0.213031	0.127916	
802.138	0.000473	-1.738155	2.638941	1.475395	2.661967	1.507301	-0.213016	0.127977	
803.139	0.001083	-1.738247	2.639902	1.475624	2.662241	1.506096	-0.211505	0.127916	
804.139	0.001465	-1.738292	2.640330	1.476158	2.662287	1.506431	-0.211566	0.127947	
805.139	-0.000015	-1.738369	2.640818	1.476844	2.662104	1.507240	-0.212787	0.128038	
806.140	-0.002533	-1.738109	2.641367	1.477317	2.662119	1.507347	-0.212909	0.128023	
807.140	-0.001358	-1.738231	2.641963	1.477928	2.662470	1.507454	-0.212696	0.128237	
808.141	-0.000412	-1.738063	2.642893	1.478004	2.662562	1.506218	-0.211688	0.127886	
809.139	0.004654	-1.738277	2.643672	1.478569	2.662699	1.506386	-0.211795	0.127764	
810.140	0.001617	-1.737987	2.644236	1.479133	2.662653	1.507210	-0.212329	0.127871	
811.142	0.000977	-1.737926	2.644724	1.480003	2.662791	1.507591	-0.213123	0.127962	
812.142	-0.000122	-1.737972	2.645335	1.479942	2.662913	1.506935	-0.212711	0.127825	
813.142	0.001740	-1.738338	2.646510	1.480293	2.663233	1.506142	-0.211963	0.127413	
814.142	0.002014	-1.738384	2.647196	1.480751	2.663157	1.506157	-0.211841	0.127504	
815.143	-0.000626	-1.737987	2.647532	1.481498	2.662882	1.507530	-0.212757	0.127672	
816.143	-0.000778	-1.738018	2.647944	1.481910	2.663081	1.507881	-0.213367	0.127581	
817.143	-0.001465	-1.738155	2.648814	1.482017	2.663386	1.506752	-0.212146	0.127459	
818.144	-0.000702	-1.738262	2.649592	1.482490	2.663584	1.506523	-0.211627	0.127291	
819.139	-0.000977	-1.738094	2.650187	1.482841	2.663462	1.506279	-0.211856	0.127703	
820.139	0.002258	-1.737865	2.650660	1.483497	2.663554	1.507500	-0.213062	0.127764	
821.144	0.002304	-1.737880	2.651286	1.483970	2.663615	1.507332	-0.212680	0.127764	
822.145	0.001694	-1.738079	2.652232	1.484291	2.663889	1.506843	-0.211597	0.127672	
823.145	0.003448	-1.738033	2.652781	1.484596	2.663920	1.506172	-0.211765	0.127535	
824.145	0.001755	-1.738002	2.653513	1.485268	2.664011	1.507164	-0.212406	0.127611	
825.145	0.000443	-1.738033	2.653910	1.485512	2.663874	1.507652	-0.213138	0.128069	
826.146	-0.000275	-1.737865	2.654322	1.486229	2.664057	1.507683	-0.213031	0.128115	
827.146	0.000336	-1.738140	2.655085	1.486503	2.664210	1.506554	-0.212070	0.128008	
828.146	0.000519	-1.738216	2.655863	1.486748	2.664347	1.506142	-0.212131	0.128023	
829.140	-0.000793	-1.738369	2.656382	1.487358	2.664393	1.506950	-0.212726	0.127611	
830.132	-0.001999	-1.737957	2.656947	1.488274	2.664485	1.507744	-0.212955	0.127810	
831.147	-0.001724	-1.737789	2.657343	1.488441	2.664378	1.507149	-0.213275	0.127977	
832.147	-0.001022	-1.738079	2.658198	1.488655	2.664713	1.506401	-0.211536	0.127581	
833.147	0.003510	-1.738247	2.658961	1.488930	2.664668	1.506096	-0.211627	0.127428	
834.132	0.002213	-1.738186	2.659373	1.489509	2.664744	1.507225	-0.211948	0.127749	
835.132	0.001816	-1.737697	2.659953	1.490166	2.664805	1.507881	-0.213291	0.127733	
836.132	0.001068	-1.738033	2.660731	1.490776	2.665125	1.507271	-0.212787	0.127626	
837.133	0.001755	-1.738094	2.661662	1.490761	2.665156	1.506981	-0.211811	0.127550	
838.133	0.001495	-1.737972	2.662287	1.490959	2.665308	1.506325	-0.211460	0.127352	
839.139	0.000031	-1.737896	2.662318	1.491890	2.665232	1.507210	-0.212757	0.127993	
840.140	-0.001038	-1.737667	2.662959	1.492256	2.665049	1.507561	-0.213108	0.127993	
841.140	-0.000732	-1.737606	2.663538	1.492561	2.665217	1.507072	-0.212757	0.128023	
842.134	-0.000641	-1.738002	2.664561	1.493034	2.665522	1.506538	-0.211566	0.127916	
843.134	-0.000626	-1.737957	2.665247	1.493461	2.665644	1.506248	-0.211536	0.127810	
844.135	-0.002090	-1.737850	2.665598	1.493980	2.665553	1.507118	-0.213031	0.128160	
845.135	-0.003937	-1.738063	2.665919	1.494423	2.665385	1.507683	-0.213077	0.128466	
846.141	0.004028	-1.737667	2.667155	1.494514	2.665675	1.506798	-0.212635	0.127611	
847.141	0.003342	-1.738048	2.667735	1.495216	2.666117	1.506218	-0.211551	0.127703	
848.136	0.001831	-1.738033	2.668131	1.495476	2.665995	1.506187	-0.211917	0.127840	
849.139	0.001007	-1.737774	2.669001	1.496132	2.666056	1.507606	-0.212787	0.127764	
850.139	0.000183	-1.737636	2.669413	1.496544	2.665949	1.507454	-0.213703	0.127794	
851.142	0.000778	-1.737850	2.670023	1.497032	2.666209	1.506798	-0.212177	0.128115	
852.142	0.001816	-1.737972	2.670893	1.497368	2.666590	1.506203	-0.211505	0.128023	
853.142	0.000244	-1.737865	2.671504	1.497780	2.666422	1.506416	-0.212207	0.128206	
854.143	-0.000931	-1.737865	2.671732	1.498619	2.666407	1.507469	-0.212955	0.128481	
855.143	-0.001968	-1.737743	2.672450	1.499046	2.666438	1.507561	-0.213062	0.128267	
856.144	-0.001160	-1.737850	2.673426	1.499260	2.666865	1.506660	-0.212009	0.128008	
857.144	0.004486	-1.737972	2.674220	1.499504	2.667063	1.506142	-0.211658	0.127626	
858.144	0.004135	-1.738063	2.674891	1.500145	2.666972	1.506615	-0.212329	0.127565	
859.139	0.002075	-1.737728	2.675242	1.500542	2.666987	1.507347	-0.213138	0.128054	
860.145	0.002167	-1.737835	2.675792	1.501152	2.667063	1.507332	-0.213016	0.128023	
861.145	0.001755	-1.737789	2.676265	1.501305	2.667384	1.506248	-0.211887	0.128099	
862.145	0.002197	-1.737972	2.677272	1.501686	2.667628	1.506386	-0.211627	0.128099	
863.146	0.000031	-1.737621	2.677775	1.502342	2.667536	1.506798	-0.212268	0.128054	
864.146	0.000092	-1.737575	2.678340	1.502861	2.667445	1.507637	-0.213108	0.128237	
865.146	-0.000702	-1.737697	2.678843	1.503532	2.667704	1.507149	-0.212894	0.128176	
866.147	0.000351	-1.737728	2.679667	1.503853	2.667918	1.506233	-0.211627	0.127901	
867.147	0.000061	-1.738063	2.680506	1.504372	2.668070	1.506294	-0.211551	0.127520	
868.147	-0.000992	-1.738048	2.681193	1.504722	2.668314	1.507255	-0.212268	0.127657	
869.139	-0.001892	-1.737575	2.681407	1.505333	2.668314	1.507744	-0.213047	0.128267	
870.139	0.002869	-1.737468	2.681834	1.505470	2.668360	1.507088	-0.212741	0.128313	
871.133	0.003448	-1.737667	2.683192	1.505699	2.668650	1.506294	-0.211933	0.127642	
872.133	0.003830	-1.737697	2.683726	1.506325	2.668971	1.506019	-0.211612	0.127764	
873.133	0.002228	-1.737423	2.684382	1.506813	2.668803	1.506935	-0.212421	0.128191	
874.133	0.001175	-1.737590	2.684687	1.507194	2.668849	1.507255	-0.213031	0.128283	
875.133	0.001038	-1.737423	2.685374	1.507652	2.669047	1.506966	-0.212818	0.128328	
876.134	0.001846	-1.737758	2.686244	1.508049	2.669276	1.506386	-0.211811	0.128054	
877.134	0.000992	-1.737636	2.686900	1.508537	2.669413	1.506233	-0.211902	0.127916	
878.134	0.001221	-1.737468	2.687220	1.508934	2.669474	1.507469	-0.212924	0.128008	
879.139	-0.001099	-1.737453	2.687937	1.509666	2.669474	1.507652	-0.213123	0.127626	
880.139	-0.000565	-1.737499	2.688594	1.510322	2.669627	1.506767	-0.212543	0.127398	
881.136	-0.000488	-1.737560	2.689189	1.509849	2.669703	1.505928	-0.211612	0.127855	
882.137	-0.000549	-1.737667	2.690150	1.510811	2.670039	1.506172	-0.211887	0.127764	
883.137	-0.002014	-1.737682	2.690455	1.511085	2.669856	1.507286	-0.212726	0.127947	
884.137	0.003464	-1.737362	2.690959	1.511726	2.670054	1.507789	-0.213062	0.127825	
885.137	0.002518	-1.737636	2.692042	1.511986	2.670496	1.506706	-0.212192	0.127535	
886.138	0.002548	-1.737651	2.692759	1.512245	2.670649	1.506416	-0.211414	0.127398	
887.138	0.002213	-1.737514	2.693446	1.512779	2.670817	1.506843	-0.211963	0.127413	
888.138	0.000702	-1.737301	2.693690	1.513451	2.670527	1.507332	-0.212680	0.127718	
889.138	0.000244	-1.737224	2.694560	1.513969	2.670817	1.507347	-0.213199	0.127703	
890.138	0.000626	-1.737392	2.695369	1.514168	2.671137	1.506538	-0.212100	0.127398	
891.139	0.000732	-1.737575	2.695979	1.514519	2.671366	1.506477	-0.211811	0.127260	
892.139	-0.000229	-1.737270	2.696528	1.515129	2.671168	1.506966	-0.212329	0.127291	
893.141	-0.001923	-1.737331	2.697093	1.515938	2.671214	1.507973	-0.212970	0.127672	
894.141	-0.002182	-1.737377	2.697642	1.516259	2.671153	1.507286	-0.213047	0.127687	
895.141	0.003555	-1.737377	2.698497	1.516442	2.671610	1.506645	-0.211887	0.127687	
896.142	0.004547	-1.737484	2.699427	1.516839	2.671946	1.506157	-0.211399	0.127596	
897.142	0.002747	-1.737484	2.699870	1.517159	2.671717	1.506691	-0.212375	0.127581	
898.142	0.001709	-1.736950	2.700053	1.517800	2.671793	1.507561	-0.213077	0.127932	
899.138	0.000763	-1.737346	2.700984	1.518334	2.671870	1.507576	-0.212772	0.127611	
900.138	0.001663	-1.737423	2.701701	1.518624	2.672129	1.506477	-0.211643	0.127459	
901.142	0.002365	-1.737438	2.702571	1.519112	2.672312	1.506126	-0.211536	0.127489	
902.143	0.000549	-1.737301	2.703135	1.519631	2.672190	1.506981	-0.212268	0.127520	
903.143	-0.000610	-1.737117	2.703609	1.520074	2.672267	1.507576	-0.212924	0.127855	
904.143	-0.000870	-1.737209	2.704158	1.520486	2.672572	1.507408	-0.212726	0.127810	
905.144	0.004776	-1.737285	2.705043	1.520775	2.672816	1.506767	-0.211780	0.127703	
906.144	0.004868	-1.737377	2.705592	1.521386	2.673136	1.506325	-0.211368	0.127642	
907.144	0.003906	-1.737194	2.706187	1.521950	2.672999	1.507149	-0.212711	0.127779	
908.145	0.002548	-1.737194	2.706447	1.522301	2.673182	1.507683	-0.213123	0.127779	
909.138	0.002777	-1.737346	2.707454	1.522683	2.673274	1.506889	-0.212436	0.127504	
910.138	0.002579	-1.737377	2.707958	1.522973	2.673609	1.506462	-0.211780	0.127367	
911.145	0.002365	-1.737133	2.708812	1.523629	2.673655	1.506309	-0.211521	0.127520	
912.145	0.000458	-1.737178	2.709285	1.524163	2.673609	1.507271	-0.212604	0.127733	
913.145	0.000504	-1.737163	2.709911	1.524712	2.673915	1.507713	-0.213016	0.127779	
914.140	0.000656	-1.737041	2.710155	1.525139	2.673976	1.506569	-0.212192	0.127718	
915.140	0.001236	-1.737346	2.711177	1.525292	2.674189	1.506157	-0.211353	0.127596	
916.146	0.000732	-1.737301	2.711635	1.525643	2.674418	1.506752	-0.211780	0.127260	
917.146	-0.000946	-1.736995	2.712291	1.526162	2.674296	1.507439	-0.212833	0.127520	
918.146	-0.001678	-1.737163	2.712627	1.526955	2.674372	1.507454	-0.212787	0.127749	
919.138	-0.000854	-1.737362	2.713557	1.526971	2.674769	1.506828	-0.212131	0.128130	
920.138	-0.001129	-1.737209	2.713954	1.527367	2.674830	1.506050	-0.211521	0.127916	
921.146	-0.001373	-1.737346	2.715114	1.527764	2.674968	1.506462	-0.211658	0.127275	
922.147	0.002716	-1.737148	2.715404	1.528527	2.674983	1.507301	-0.212726	0.127672	
923.147	0.001999	-1.737056	2.715556	1.528863	2.675196	1.507728	-0.213123	0.128283	
924.132	0.002365	-1.737117	2.716380	1.529030	2.675273	1.506706	-0.212406	0.127810	
925.132	0.002777	-1.737255	2.717082	1.529351	2.675624	1.505989	-0.211338	0.127626	
926.132	0.001450	-1.737117	2.718105	1.529961	2.675517	1.506554	-0.212177	0.127718	
927.132	0.000092	-1.736827	2.718486	1.530663	2.675395	1.507362	-0.213153	0.127962	
928.133	-0.000366	-1.736950	2.719218	1.531014	2.675639	1.507500	-0.213062	0.127901	
929.138	0.000443	-1.737011	2.719615	1.531258	2.676005	1.506721	-0.211994	0.127932	
930.138	0.000290	-1.737423	2.720378	1.531670	2.676112	1.506004	-0.211292	0.127840	
931.138	-0.000488	-1.737087	2.720897	1.532097	2.676020	1.506828	-0.212345	0.127749	
932.139	-0.002136	-1.737056	2.721217	1.532754	2.676081	1.507545	-0.213062	0.127993	
933.139	-0.002274	-1.736980	2.721996	1.533181	2.676188	1.507484	-0.212757	0.128176	
934.139	-0.001877	-1.737133	2.722697	1.533440	2.676554	1.506645	-0.211734	0.128054	
935.140	0.003342	-1.737285	2.723369	1.533730	2.676738	1.506035	-0.211566	0.127749	
936.141	0.002762	-1.737011	2.723918	1.534264	2.676707	1.506935	-0.212253	0.127977	
937.141	0.001495	-1.736812	2.724605	1.534920	2.676783	1.507271	-0.213291	0.128115	
938.141	0.001312	-1.736919	2.724986	1.535439	2.676997	1.507439	-0.212848	0.128328	
939.138	0.001953	-1.737087	2.725902	1.535927	2.677302	1.506538	-0.211750	0.127901	
940.138	0.001770	-1.737133	2.726650	1.536019	2.677439	1.506279	-0.211750	0.128008	
941.138	0.000504	-1.737056	2.727458	1.536736	2.677455	1.507072	-0.212665	0.127993	
942.139	-0.000565	-1.736873	2.727748	1.537392	2.677394	1.507866	-0.213047	0.128176	
943.142	-0.000626	-1.736950	2.728297	1.537621	2.677607	1.507179	-0.212741	0.128283	
944.141	0.000153	-1.737011	2.729533	1.537835	2.678065	1.506554	-0.211887	0.127550	
945.141	-0.000565	-1.736965	2.730006	1.538308	2.678035	1.506309	-0.211688	0.127779	
946.141	-0.001785	-1.736873	2.730571	1.539040	2.677897	1.506996	-0.212406	0.127504	
947.144	0.003464	-1.736721	2.731090	1.539528	2.678187	1.507423	-0.213123	0.127749	
948.145	0.003342	-1.736873	2.731838	1.540124	2.678614	1.507393	-0.212314	0.127672	
949.138	0.004379	-1.736950	2.732433	1.540169	2.678675	1.506218	-0.211688	0.127703	
950.139	0.002853	-1.736919	2.733119	1.540413	2.678736	1.506538	-0.211948	0.127703	
951.143	0.001801	-1.736858	2.733623	1.541283	2.678782	1.507561	-0.212665	0.127611	
952.143	0.000198	-1.736583	2.734096	1.541894	2.678828	1.507530	-0.213016	0.127871	
953.146	0.001389	-1.736873	2.734631	1.541909	2.678996	1.506676	-0.212512	0.128084	
954.146	0.001480	-1.736980	2.735790	1.542229	2.679301	1.506218	-0.211444	0.127520	
955.146	0.000748	-1.736950	2.736294	1.542962	2.679286	1.506279	-0.211673	0.127459	
956.147	-0.000443	-1.736644	2.736859	1.543191	2.679148	1.507286	-0.212802	0.127550	
957.147	-0.001343	-1.736522	2.737393	1.543709	2.679301	1.507179	-0.212940	0.127764	
958.147	-0.000412	-1.736858	2.738156	1.544259	2.679667	1.507011	-0.212039	0.127489	
959.139	0.003067	-1.736919	2.738552	1.544442	2.679713	1.505928	-0.211490	0.127993	
960.139	0.003616	-1.736980	2.739392	1.545128	2.680201	1.506264	-0.212284	0.127977	
961.132	0.002762	-1.736721	2.739804	1.545632	2.679942	1.507500	-0.212955	0.127810	
962.132	0.002075	-1.736507	2.740338	1.546044	2.680033	1.507118	-0.213245	0.127840	
963.133	0.003220	-1.736690	2.741390	1.546380	2.680262	1.506615	-0.211963	0.127718	
964.133	0.003159	-1.737011	2.741986	1.546639	2.680613	1.506065	-0.211750	0.127687	
965.133	0.002594	-1.736690	2.742764	1.547097	2.680583	1.506660	-0.212070	0.127611	
966.133	0.000229	-1.736583	2.742748	1.547875	2.680537	1.507454	-0.212848	0.127718	
967.134	-0.000290	-1.736690	2.743450	1.548165	2.680690	1.507683	-0.213321	0.127733	
968.134	0.000229	-1.736736	2.744519	1.548623	2.681071	1.506309	-0.211780	0.127626	
969.139	0.000748	-1.736995	2.745205	1.548852	2.681178	1.506004	-0.211444	0.127916	
970.139	0.000046	-1.736660	2.745678	1.549462	2.681163	1.507103	-0.212223	0.127947	
971.136	-0.001801	-1.736614	2.746228	1.549966	2.681132	1.507378	-0.213153	0.127611	
972.137	-0.002304	-1.736568	2.746792	1.550378	2.681254	1.507515	-0.212757	0.127718	
973.137	0.003296	-1.736797	2.747631	1.550393	2.681453	1.506462	-0.211994	0.127459	
974.137	0.004547	-1.736644	2.748577	1.551080	2.681819	1.506248	-0.211704	0.127321	
975.137	0.002502	-1.736507	2.748638	1.551476	2.681742	1.507118	-0.212345	0.127565	
976.138	0.001709	-1.736644	2.749386	1.552285	2.681895	1.507606	-0.212970	0.127703	
977.138	0.001541	-1.736599	2.749951	1.552545	2.682139	1.507240	-0.212787	0.127718	
978.138	0.002457	-1.736751	2.750851	1.552682	2.682383	1.506462	-0.211826	0.127611	
979.138	0.001801	-1.736553	2.751599	1.553262	2.682399	1.506264	-0.211658	0.127413	
980.139	-0.000671	-1.736522	2.752041	1.553750	2.682154	1.507133	-0.212802	0.127504	
981.139	-0.000839	-1.736461	2.752499	1.554269	2.682505	1.507240	-0.212894	0.127718	
982.139	-0.001541	-1.736736	2.753353	1.554757	2.682612	1.507179	-0.212635	0.127810	
983.140	0.000046	-1.736812	2.754009	1.554833	2.682994	1.506447	-0.211688	0.127764	
984.140	-0.000381	-1.736889	2.754635	1.555413	2.683161	1.506309	-0.211841	0.127657	
985.140	-0.001450	-1.736431	2.755352	1.555978	2.683009	1.507225	-0.212482	0.127947	
986.141	0.002472	-1.736232	2.755627	1.556680	2.683131	1.507652	-0.212848	0.128145	
987.141	0.002762	-1.736690	2.756359	1.556924	2.683375	1.507271	-0.212329	0.128191	
988.141	0.003067	-1.736583	2.757031	1.557366	2.683818	1.506325	-0.211505	0.128130	
989.144	0.002563	-1.736858	2.757778	1.557595	2.683894	1.506294	-0.211444	0.128054	
990.144	0.000977	-1.736461	2.758221	1.558343	2.683772	1.507408	-0.212818	0.128145	
991.145	-0.000137	-1.736339	2.758587	1.559091	2.683757	1.508232	-0.213001	0.128099	
992.145	-0.000046	-1.736370	2.759655	1.559121	2.683940	1.507164	-0.212070	0.127901	
993.145	0.000839	-1.736644	2.760586	1.559442	2.684458	1.506508	-0.211566	0.127871	
994.146	0.000580	-1.736599	2.761334	1.559915	2.684642	1.506264	-0.211872	0.127687	
995.146	-0.001236	-1.736339	2.761624	1.560540	2.684550	1.507652	-0.212741	0.127764	
996.146	-0.002243	-1.736293	2.762066	1.561288	2.684397	1.507561	-0.212924	0.127657	
997.146	-0.001678	-1.736507	2.763241	1.561318	2.684932	1.506843	-0.212360	0.127581	
998.147	0.003998	-1.736461	2.763851	1.561593	2.684886	1.506096	-0.211383	0.127382	
999.144	0.003342	-1.736400	2.764157	1.562097	2.685054	1.506660	-0.212207	0.127489	
1000.144	0.001770	-1.736400	2.765011	1.562722	2.685252	1.507622	-0.212909	0.127489	
1001.147	0.002045	-1.736263	2.765408	1.563272	2.685298	1.507240	-0.212665	0.128054	
1002.147	0.002045	-1.736354	2.765851	1.563516	2.685527	1.506630	-0.211780	0.128023	
1003.147	0.002090	-1.736568	2.766598	1.563867	2.685649	1.506294	-0.211505	0.127962	
1004.132	0.001007	-1.736629	2.767300	1.564370	2.685755	1.506523	-0.212635	0.128115	
1005.132	-0.000183	-1.736400	2.767880	1.564965	2.685969	1.507423	-0.213199	0.128313	
1006.132	-0.001312	-1.736293	2.768216	1.565057	2.685878	1.507149	-0.212665	0.128435	
1007.133	0.000183	-1.736431	2.768780	1.565621	2.686229	1.506431	-0.211917	0.128084	
1008.133	0.000504	-1.736492	2.769604	1.565698	2.686412	1.506172	-0.211917	0.127962	
1009.143	-0.000824	-1.736400	2.770383	1.566354	2.686366	1.506645	-0.212696	0.127947	
1010.135	-0.002640	-1.736004	2.770673	1.566873	2.686488	1.507789	-0.213092	0.128130	
1011.135	0.002655	-1.736278	2.771451	1.567147	2.686625	1.507500	-0.212680	0.127977	
1012.135	0.003311	-1.736385	2.772046	1.567422	2.686961	1.506096	-0.211765	0.127794	
1013.136	0.002792	-1.736339	2.772778	1.568093	2.687175	1.506538	-0.211475	0.127550	
1014.136	0.001526	-1.736141	2.773083	1.568383	2.687159	1.507240	-0.212482	0.127749	
1015.136	0.000656	-1.736065	2.773450	1.569100	2.687220	1.507515	-0.213016	0.127825	
1016.137	0.000458	-1.736141	2.774350	1.569314	2.687342	1.506981	-0.212589	0.127764	
1017.137	0.001144	-1.736171	2.775388	1.569833	2.687770	1.506584	-0.211643	0.127520	
1018.137	0.000961	-1.736309	2.775952	1.570062	2.687876	1.506096	-0.211658	0.127581	
1019.144	-0.001114	-1.736080	2.776379	1.570779	2.687876	1.507378	-0.212924	0.128252	
1020.144	-0.001877	-1.736263	2.776913	1.571252	2.687831	1.507454	-0.213184	0.128389	
1021.144	-0.001923	-1.736202	2.777646	1.571588	2.688288	1.507133	-0.212024	0.128084	
1022.140	0.003494	-1.736187	2.778424	1.571847	2.688609	1.506370	-0.211322	0.127474	
1023.138	0.003738	-1.736278	2.778958	1.572396	2.688807	1.506355	-0.211688	0.127977	
1024.137	0.002655	-1.735927	2.779660	1.573068	2.688746	1.507332	-0.212512	0.127611	
1025.137	0.001297	-1.736019	2.779980	1.573464	2.688639	1.507637	-0.213642	0.127779	
1026.145	0.000854	-1.736065	2.780499	1.573785	2.688945	1.506874	-0.212573	0.128206	
1027.146	0.002533	-1.736019	2.781369	1.573953	2.689234	1.506294	-0.211872	0.127932	
1028.139	0.000412	-1.736278	2.782422	1.574395	2.689204	1.506813	-0.211399	0.127367	
1029.144	-0.000305	-1.735973	2.782635	1.575112	2.689219	1.507439	-0.213199	0.128160	
1030.144	-0.000977	-1.736019	2.783261	1.575738	2.689341	1.507835	-0.212680	0.128374	
1031.146	-0.000504	-1.736065	2.783581	1.575875	2.689646	1.507042	-0.212146	0.128206	
1032.147	0.000046	-1.736461	2.784848	1.576364	2.690028	1.506294	-0.211246	0.128237	
1033.147	-0.000488	-1.736522	2.785641	1.576852	2.690089	1.506554	-0.212314	0.128023	
1034.147	-0.002319	-1.735988	2.785931	1.577508	2.689952	1.507423	-0.212741	0.128206	
1035.132	0.003220	-1.735881	2.786511	1.577890	2.690150	1.507301	-0.212726	0.128191	
1036.132	0.003281	-1.735988	2.787488	1.578286	2.690684	1.506370	-0.212039	0.128145	
1037.133	0.002625	-1.736232	2.788113	1.578500	2.690821	1.506279	-0.211368	0.127810	
1038.133	0.002167	-1.736141	2.788708	1.578866	2.690928	1.506569	-0.212284	0.127962	
1039.144	0.000824	-1.735942	2.789288	1.579629	2.690852	1.507530	-0.213214	0.128359	
1040.135	0.000534	-1.736080	2.790005	1.580179	2.691005	1.507393	-0.213153	0.127901	
1041.135	0.000977	-1.736217	2.790753	1.580499	2.691340	1.506554	-0.211841	0.127550	
1042.135	0.001312	-1.736202	2.791592	1.580499	2.691539	1.506477	-0.211429	0.127535	
1043.136	-0.000656	-1.736095	2.791898	1.581277	2.691661	1.506660	-0.212329	0.127596	
1044.136	-0.001572	-1.735912	2.792508	1.582132	2.691767	1.507789	-0.212894	0.127703	
1045.136	-0.001572	-1.736034	2.793042	1.582437	2.691905	1.507439	-0.212833	0.127703	
1046.137	-0.001022	-1.736293	2.793744	1.582574	2.692332	1.506386	-0.211490	0.127535	
1047.137	0.003586	-1.735912	2.794736	1.582803	2.692500	1.506431	-0.211627	0.127352	
1048.137	0.003479	-1.735988	2.795239	1.583475	2.692363	1.506721	-0.212253	0.127535	
1049.143	0.002090	-1.735729	2.795407	1.583978	2.692622	1.507896	-0.213031	0.128130	
1050.143	0.001999	-1.735897	2.796216	1.584680	2.692759	1.507500	-0.212741	0.127947	
1051.144	0.003082	-1.736034	2.796979	1.584939	2.693034	1.506370	-0.211872	0.127825	
1052.140	0.001648	-1.735958	2.797910	1.585153	2.693293	1.505928	-0.211734	0.127474	
1053.140	0.001114	-1.735912	2.798413	1.585885	2.693125	1.507561	-0.212589	0.127550	
1054.141	-0.000565	-1.735851	2.798810	1.586343	2.693232	1.507805	-0.213016	0.127810	
1055.147	-0.000839	-1.736034	2.799558	1.586801	2.693278	1.507088	-0.212665	0.128191	
1056.147	0.000488	-1.735927	2.800382	1.587137	2.693888	1.506218	-0.211582	0.127947	
1057.147	-0.000107	-1.735942	2.801099	1.587350	2.693980	1.506431	-0.211627	0.127840	
1058.147	-0.000854	-1.735912	2.801511	1.587945	2.693843	1.507133	-0.212650	0.127810	
1059.143	0.002686	-1.735775	2.802014	1.588617	2.694209	1.507362	-0.213184	0.127977	
1060.144	0.002991	-1.735897	2.802335	1.588830	2.694255	1.506904	-0.212299	0.127916	
1061.132	0.003494	-1.735988	2.803815	1.589151	2.694819	1.506492	-0.211627	0.127718	
1062.132	0.002899	-1.736080	2.804273	1.589349	2.695002	1.506416	-0.211887	0.127626	
1063.133	0.001556	-1.735790	2.804852	1.590295	2.694972	1.507225	-0.212268	0.127764	
1064.133	-0.000107	-1.735622	2.805127	1.590753	2.694911	1.507316	-0.213214	0.127901	
1065.134	0.000671	-1.735744	2.805997	1.591195	2.695552	1.506538	-0.212436	0.127749	
1066.134	0.002213	-1.735897	2.806882	1.591363	2.695933	1.505989	-0.211597	0.127474	
1067.134	0.000900	-1.735775	2.807355	1.591607	2.695903	1.506950	-0.211673	0.127611	
1068.135	-0.000565	-1.735759	2.807462	1.592218	2.696009	1.506904	-0.213199	0.128237	
1069.135	0.004044	-1.735469	2.808179	1.592935	2.696086	1.507454	-0.213153	0.128222	
1070.136	0.005173	-1.735637	2.809155	1.593088	2.696559	1.506615	-0.212116	0.127794	
1071.136	0.004807	-1.735973	2.810361	1.593591	2.697154	1.506294	-0.211658	0.127642	
1072.136	0.003586	-1.735820	2.810590	1.593988	2.697139	1.506813	-0.212436	0.127626	
1073.136	0.003143	-1.735408	2.810742	1.594522	2.697169	1.507439	-0.212909	0.127749	
1074.137	0.001755	-1.735607	2.811505	1.595041	2.697276	1.507225	-0.212955	0.127932	
1075.137	0.002289	-1.735637	2.812100	1.595437	2.697734	1.506615	-0.212284	0.127565	
1076.137	0.002365	-1.735790	2.813245	1.595697	2.698085	1.506019	-0.211490	0.127489	
1077.138	0.001236	-1.735744	2.813550	1.596414	2.698130	1.506966	-0.212696	0.127443	
1078.132	-0.000397	-1.735500	2.813825	1.596902	2.698146	1.507393	-0.213062	0.128054	
1079.138	-0.000992	-1.735332	2.815412	1.597513	2.698466	1.507240	-0.213001	0.127733	
1080.138	0.000351	-1.735775	2.816480	1.597894	2.698878	1.506157	-0.211688	0.127504	
1081.139	-0.000427	-1.735698	2.817853	1.598733	2.699198	1.506218	-0.211612	0.127337	
1082.139	-0.002060	-1.735592	2.818891	1.599725	2.699244	1.506691	-0.212360	0.127550	
1083.139	0.001434	-1.735530	2.820004	1.600625	2.699382	1.507408	-0.212818	0.127779	
1084.140	0.000992	-1.735683	2.821103	1.601282	2.699626	1.507347	-0.212924	0.127855	
1085.140	0.001862	-1.735759	2.822003	1.601968	2.700190	1.506370	-0.212039	0.127687	
1086.140	0.001419	-1.736004	2.823102	1.602350	2.700434	1.506248	-0.211994	0.127749	
1087.141	0.000031	-1.735546	2.823636	1.602792	2.700373	1.506691	-0.212482	0.127764	
1088.141	-0.001007	-1.735607	2.824445	1.603830	2.700709	1.508003	-0.213108	0.128054	
1089.142	-0.001480	-1.735592	2.824719	1.604516	2.700755	1.507164	-0.212665	0.128252	
1090.142	-0.000626	-1.735714	2.825711	1.604730	2.701228	1.506126	-0.211765	0.128222	
1091.142	0.002991	-1.735729	2.826718	1.604791	2.701426	1.506050	-0.211505	0.128206	
1092.142	0.002487	-1.735561	2.827252	1.605630	2.701548	1.507179	-0.212833	0.128511	
1093.143	0.001221	-1.735393	2.827542	1.606195	2.701670	1.507927	-0.213016	0.128557	
1094.143	0.001114	-1.735408	2.828214	1.606408	2.702067	1.507057	-0.212436	0.128527	
1095.143	0.002029	-1.735622	2.828962	1.606943	2.702388	1.506264	-0.211582	0.128496	
1096.144	0.001846	-1.735622	2.829725	1.607049	2.702342	1.506187	-0.211811	0.128283	
1097.144	-0.000351	-1.735256	2.829969	1.607797	2.702571	1.507484	-0.213031	0.128496	
1098.140	-0.001068	-1.735164	2.830793	1.608514	2.702845	1.507469	-0.213397	0.127993	
1099.144	-0.000732	-1.735210	2.830747	1.608743	2.703120	1.506660	-0.212467	0.128115	
1100.145	-0.000305	-1.735485	2.831952	1.609003	2.703410	1.506370	-0.211536	0.127977	
1101.145	-0.000977	-1.735378	2.832608	1.609308	2.703655	1.505974	-0.211856	0.127871	
1102.145	-0.002243	-1.735439	2.832868	1.609858	2.703853	1.507240	-0.212909	0.128054	
1103.146	0.002304	-1.735302	2.833387	1.610102	2.703838	1.507789	-0.213245	0.128038	
1104.146	0.002426	-1.735332	2.833722	1.610514	2.704143	1.506904	-0.212528	0.127794	
1105.146	0.002441	-1.735622	2.834592	1.610865	2.704768	1.506081	-0.211643	0.127703	
1106.147	0.002213	-1.735363	2.835019	1.611078	2.704829	1.506386	-0.211826	0.127550	
1107.147	0.000366	-1.735408	2.835523	1.611246	2.704768	1.507378	-0.212543	0.127901	
1108.139	-0.000366	-1.735332	2.835630	1.611963	2.704890	1.507423	-0.213169	0.128603	
1109.133	0.000168	-1.735546	2.836301	1.612238	2.705196	1.506615	-0.212223	0.127749	
1110.133	0.001205	-1.735485	2.837339	1.612558	2.705653	1.506157	-0.211277	0.127825	
1111.133	0.000076	-1.735668	2.837522	1.612787	2.705913	1.506706	-0.211902	0.127718	
1112.134	-0.001358	-1.735286	2.837995	1.613337	2.706035	1.507545	-0.212696	0.128084	
1113.134	-0.002060	-1.735103	2.838346	1.613840	2.705837	1.507164	-0.212894	0.128145	
1114.141	0.003876	-1.735408	2.838910	1.613993	2.706447	1.506798	-0.212085	0.128481	
1115.136	0.004333	-1.735637	2.839643	1.614100	2.706828	1.506401	-0.211673	0.127749	
1116.136	0.003601	-1.735530	2.840146	1.614649	2.706859	1.506569	-0.212116	0.127718	
1117.137	0.001816	-1.735225	2.840513	1.615168	2.706950	1.507240	-0.213123	0.128466	
1118.139	0.001404	-1.735256	2.840879	1.615671	2.707195	1.507332	-0.212711	0.128405	
1119.141	0.002029	-1.735317	2.841626	1.615976	2.707652	1.506920	-0.211780	0.128069	
1120.141	0.001755	-1.735408	2.842099	1.615915	2.707805	1.505821	-0.211414	0.127718	
1121.138	0.000626	-1.735271	2.842450	1.616434	2.707805	1.506889	-0.212253	0.128649	
1122.138	0.000046	-1.735134	2.842984	1.617090	2.708019	1.507500	-0.213138	0.128695	
1123.138	-0.000626	-1.735225	2.843335	1.617289	2.708278	1.507408	-0.213062	0.128695	
1124.142	-0.000122	-1.735286	2.844465	1.617640	2.708888	1.506477	-0.211734	0.128160	
1125.142	0.000580	-1.735515	2.844846	1.617655	2.708843	1.505928	-0.211704	0.128389	
1126.143	-0.000946	-1.735317	2.845227	1.618281	2.708888	1.507103	-0.212512	0.128481	
1127.143	-0.001984	-1.735164	2.845472	1.618662	2.709178	1.507332	-0.212833	0.128496	
1128.139	0.001389	-1.735286	2.845990	1.619288	2.709422	1.507057	-0.213138	0.128527	
1129.143	0.002426	-1.735286	2.846769	1.619516	2.709834	1.506386	-0.211887	0.128389	
1130.145	0.001556	-1.735317	2.847471	1.619898	2.710063	1.506645	-0.211536	0.128374	
1131.145	0.000687	-1.735119	2.848050	1.620402	2.710078	1.506981	-0.212772	0.128481	
1132.145	-0.001236	-1.735057	2.848371	1.621149	2.710109	1.507408	-0.213382	0.128588	
1133.146	-0.000214	-1.734996	2.849302	1.621317	2.710826	1.507088	-0.212406	0.128374	
1134.146	0.000412	-1.735302	2.849851	1.621363	2.710902	1.506111	-0.212223	0.128176	
1135.146	-0.000183	-1.735180	2.850705	1.621943	2.710872	1.506554	-0.211811	0.128206	
1136.147	-0.001572	-1.735195	2.850919	1.622400	2.711025	1.507347	-0.212818	0.128160	
1137.147	0.002655	-1.735119	2.851743	1.622995	2.711299	1.507561	-0.213565	0.128328	
1138.140	0.002533	-1.735286	2.852506	1.623255	2.711589	1.507133	-0.212360	0.127642	
1139.147	0.003113	-1.735332	2.853086	1.623560	2.712047	1.506248	-0.211490	0.127886	
1140.147	0.002518	-1.735134	2.854169	1.624125	2.712322	1.505989	-0.211795	0.127810	
1141.132	0.000992	-1.735088	2.854352	1.624796	2.712611	1.507240	-0.212787	0.127932	
1142.132	-0.000153	-1.734966	2.854825	1.625376	2.712795	1.507698	-0.213275	0.128160	
1143.133	0.000626	-1.735057	2.855573	1.625513	2.713054	1.506889	-0.212223	0.127932	
1144.133	0.000916	-1.735317	2.856244	1.625773	2.713374	1.506233	-0.211734	0.127947	
1145.133	0.000290	-1.734966	2.856794	1.626291	2.713390	1.506645	-0.211933	0.127794	
1146.134	-0.001053	-1.734966	2.857251	1.626841	2.713435	1.507591	-0.213031	0.127932	
1147.134	-0.001938	-1.734844	2.857877	1.627558	2.713710	1.507469	-0.213443	0.127932	
1148.139	-0.001587	-1.735073	2.858350	1.627710	2.714076	1.506737	-0.212146	0.127657	
1149.139	0.003647	-1.735317	2.859449	1.627771	2.714442	1.506065	-0.211566	0.127489	
1150.139	0.003937	-1.734981	2.859907	1.628199	2.714565	1.506645	-0.212360	0.127718	
1151.135	0.002258	-1.734981	2.860700	1.629130	2.714809	1.507347	-0.213062	0.128328	
1152.135	0.001678	-1.735073	2.861006	1.629648	2.714946	1.507347	-0.213245	0.128237	
1153.135	0.002151	-1.735027	2.861875	1.629694	2.715312	1.506492	-0.211994	0.127840	
1154.136	0.001862	-1.735210	2.862425	1.630060	2.715419	1.506157	-0.211963	0.127611	
1155.136	0.001068	-1.735225	2.862974	1.630579	2.715541	1.506843	-0.212253	0.127749	
1156.136	-0.000565	-1.734981	2.863523	1.631220	2.715602	1.507530	-0.212970	0.127901	
1157.137	-0.000931	-1.734752	2.864164	1.631510	2.715892	1.507164	-0.212894	0.128191	
1158.139	-0.000534	-1.735271	2.864988	1.631983	2.716472	1.506355	-0.211994	0.127977	
1159.139	0.000076	-1.735271	2.865721	1.632120	2.716563	1.506233	-0.211399	0.127932	
1160.139	-0.001572	-1.735195	2.866728	1.632837	2.716762	1.506782	-0.212253	0.127916	
1161.139	-0.002487	-1.734874	2.866712	1.633661	2.716792	1.507988	-0.213016	0.128130	
1162.140	0.003479	-1.734920	2.867277	1.633860	2.717067	1.507271	-0.212909	0.128023	
1163.140	0.003464	-1.734951	2.867811	1.634165	2.717494	1.506416	-0.211856	0.127886	
1164.140	0.002457	-1.734951	2.868803	1.634546	2.717662	1.505745	-0.211887	0.127703	
1165.140	0.002243	-1.734691	2.869352	1.634928	2.717754	1.506996	-0.212482	0.127779	
1166.141	0.001190	-1.734859	2.870222	1.635355	2.718044	1.507622	-0.213291	0.128008	
1167.141	0.000397	-1.734752	2.870542	1.635859	2.718196	1.507149	-0.212818	0.127886	
1168.138	0.001404	-1.734829	2.871458	1.636103	2.718440	1.506569	-0.212100	0.127443	
1169.141	0.001083	-1.735042	2.872083	1.636454	2.718776	1.506218	-0.211215	0.127367	
1170.141	0.000809	-1.734707	2.872755	1.637186	2.718883	1.507240	-0.212970	0.127504	
1171.142	-0.001251	-1.734798	2.873182	1.637705	2.718959	1.507759	-0.213382	0.127672	
1172.142	-0.001663	-1.734813	2.873808	1.638224	2.719264	1.506981	-0.212741	0.127626	
1173.142	-0.000259	-1.735027	2.874693	1.638422	2.719722	1.506172	-0.211780	0.127459	
1174.142	-0.001251	-1.734981	2.874967	1.638636	2.719951	1.505943	-0.211307	0.127169	
1175.143	-0.003113	-1.734829	2.875715	1.639292	2.719890	1.506767	-0.212528	0.127565	
1176.143	0.002625	-1.734676	2.876096	1.639643	2.720195	1.507667	-0.213230	0.127611	
1177.143	0.002579	-1.734768	2.877012	1.640436	2.720668	1.507164	-0.212573	0.127779	
1178.139	0.003143	-1.734813	2.877317	1.640268	2.721095	1.506126	-0.211795	0.127977	
1179.143	0.003876	-1.734996	2.878278	1.640803	2.721233	1.506615	-0.211566	0.127504	
1180.143	0.001190	-1.734676	2.878401	1.641261	2.721278	1.507637	-0.212589	0.127840	
1181.147	0.001389	-1.734493	2.879164	1.641993	2.721400	1.508125	-0.212955	0.127779	
1182.147	0.000229	-1.734493	2.879942	1.642069	2.721584	1.507042	-0.212223	0.127764	
1183.147	0.001404	-1.735012	2.880689	1.642435	2.722118	1.506355	-0.211948	0.127565	
1184.132	0.000732	-1.734783	2.881620	1.642802	2.722362	1.506538	-0.212039	0.127840	
1185.132	-0.000305	-1.734661	2.881620	1.643412	2.722286	1.507240	-0.212741	0.128008	
1186.132	-0.001556	-1.734722	2.882383	1.644007	2.722636	1.507789	-0.213428	0.128130	
1187.132	-0.001404	-1.734768	2.882658	1.644236	2.722972	1.506508	-0.212192	0.127779	
1188.139	0.003922	-1.734951	2.883711	1.644541	2.723415	1.506279	-0.211536	0.127703	
1189.132	0.004196	-1.734813	2.884550	1.644999	2.723445	1.506416	-0.212467	0.127764	
1190.133	0.002472	-1.734462	2.884718	1.645716	2.723613	1.507439	-0.213031	0.128069	
1191.133	0.002533	-1.734432	2.885008	1.646113	2.723827	1.507484	-0.213169	0.127794	
1192.133	0.002411	-1.734737	2.886091	1.646250	2.724361	1.506615	-0.212100	0.127855	
1193.134	0.002701	-1.734768	2.886915	1.646616	2.724605	1.505653	-0.211215	0.127642	
1194.134	0.001587	-1.734645	2.887312	1.647410	2.724712	1.506752	-0.212329	0.127901	
1195.134	-0.000610	-1.734462	2.887892	1.648066	2.724712	1.507423	-0.213153	0.127565	
1196.135	-0.001175	-1.734615	2.888212	1.648554	2.725017	1.507378	-0.212772	0.128023	
1197.135	-0.000031	-1.734722	2.889082	1.648569	2.725337	1.506096	-0.211994	0.127733	
1198.139	-0.000076	-1.734905	2.890303	1.649073	2.725765	1.506157	-0.211734	0.128008	
1199.136	-0.000793	-1.734615	2.890455	1.649317	2.725795	1.506950	-0.212360	0.127779	
1200.136	-0.002090	-1.734737	2.890883	1.650111	2.725902	1.507667	-0.213016	0.128008	
1201.137	0.002365	-1.734676	2.891570	1.650462	2.726115	1.507576	-0.212940	0.128160	
1202.137	0.003891	-1.734691	2.892363	1.650858	2.726482	1.506462	-0.211902	0.127474	
1203.137	0.004410	-1.734661	2.893279	1.651133	2.727031	1.505943	-0.211765	0.127947	
1204.140	0.002319	-1.734478	2.893920	1.651652	2.727077	1.506431	-0.212207	0.127550	
1205.139	0.001633	-1.734356	2.894149	1.652384	2.727031	1.507423	-0.213245	0.127993	
1206.139	0.000992	-1.734630	2.894683	1.652705	2.727443	1.507454	-0.212940	0.127504	
1207.140	0.000977	-1.734691	2.895903	1.653056	2.727763	1.506584	-0.211887	0.127977	
1208.139	0.001053	-1.734752	2.896361	1.653254	2.727962	1.506294	-0.211856	0.127993	
1209.140	0.000626	-1.734447	2.896941	1.653864	2.728313	1.507194	-0.212558	0.127443	
1210.140	-0.001495	-1.734310	2.897322	1.654536	2.728359	1.507439	-0.212848	0.128008	
1211.141	-0.001511	-1.734432	2.898207	1.654871	2.728679	1.507072	-0.212299	0.128115	
1212.141	-0.000198	-1.734569	2.898833	1.655146	2.728923	1.506660	-0.211566	0.127611	
1213.141	0.000137	-1.734554	2.899688	1.655497	2.729259	1.506096	-0.211765	0.127443	
1214.142	-0.001587	-1.734447	2.900512	1.656000	2.729244	1.507011	-0.212848	0.127367	
1215.142	0.002289	-1.734264	2.900817	1.656748	2.729564	1.507469	-0.212680	0.127626	
1216.142	0.002899	-1.734508	2.901351	1.657282	2.729793	1.506843	-0.212757	0.127657	
1217.143	0.003418	-1.734676	2.902098	1.657496	2.730205	1.506157	-0.211597	0.127703	
1218.138	0.002594	-1.734615	2.902648	1.657786	2.730388	1.506248	-0.211872	0.127611	
1219.143	0.001602	-1.734462	2.903563	1.658610	2.730556	1.507011	-0.212726	0.127382	
1220.143	0.000275	-1.734325	2.903868	1.658839	2.730525	1.507500	-0.212696	0.127810	
1221.143	0.000534	-1.734417	2.904418	1.659205	2.730876	1.506798	-0.212665	0.127672	
1222.144	0.001068	-1.734539	2.905288	1.659357	2.731319	1.505867	-0.211780	0.127367	
1223.144	0.000885	-1.734539	2.906264	1.660105	2.731578	1.506386	-0.212070	0.127260	
1224.144	-0.001266	-1.734478	2.906600	1.660776	2.731792	1.507347	-0.212894	0.127825	
1225.145	-0.001877	-1.734264	2.907027	1.661082	2.731914	1.507713	-0.213169	0.127291	
1226.145	-0.000992	-1.734401	2.907668	1.661341	2.732280	1.506401	-0.212238	0.127642	
1227.132	0.003784	-1.734462	2.908767	1.661723	2.732723	1.506019	-0.211429	0.127214	
1228.139	0.005234	-1.734401	2.908934	1.662012	2.732784	1.506279	-0.212055	0.127840	
1229.146	0.003464	-1.734249	2.909514	1.662974	2.732723	1.506920	-0.212635	0.127916	
1230.146	0.002106	-1.734066	2.910033	1.663096	2.733012	1.507728	-0.213291	0.127794	
1231.146	0.002655	-1.734615	2.911086	1.663370	2.733485	1.506737	-0.212299	0.127260	
1232.147	0.001907	-1.734279	2.911589	1.663859	2.733821	1.506248	-0.211719	0.127565	
1233.147	0.001892	-1.734386	2.912154	1.664286	2.733913	1.506386	-0.212329	0.127626	
1234.132	-0.000092	-1.734218	2.912780	1.665079	2.734157	1.507439	-0.213443	0.127550	
1235.132	-0.000320	-1.734035	2.912947	1.665415	2.734218	1.507347	-0.212741	0.127703	
1236.132	0.000549	-1.734142	2.913787	1.665644	2.734676	1.506447	-0.212100	0.127871	
1237.133	0.000397	-1.734569	2.914748	1.665842	2.735043	1.505958	-0.211734	0.127214	
1238.139	-0.000198	-1.734218	2.915251	1.666407	2.734844	1.506706	-0.212070	0.127367	
1239.139	0.004303	-1.734096	2.915114	1.666727	2.734951	1.507255	-0.213138	0.127352	
1240.140	0.004501	-1.733852	2.915648	1.667048	2.735394	1.507072	-0.212909	0.126787	
1241.134	0.004425	-1.734279	2.916091	1.667231	2.735790	1.506172	-0.212131	0.128069	
1242.134	0.005585	-1.734356	2.916640	1.667292	2.736019	1.505882	-0.211658	0.127703	
1243.135	0.003326	-1.734371	2.916472	1.667597	2.735974	1.506660	-0.212345	0.127550	
1244.140	0.003128	-1.733974	2.916625	1.667902	2.735882	1.507454	-0.212604	0.127596	
1245.140	0.001999	-1.734142	2.916960	1.668330	2.736431	1.507210	-0.213016	0.127459	
1246.141	0.002899	-1.734066	2.917098	1.668085	2.736798	1.506019	-0.211887	0.127291	
1247.141	0.003296	-1.734310	2.917434	1.668040	2.736981	1.506126	-0.211460	0.127138	
1248.139	0.002136	-1.734249	2.917220	1.668208	2.737042	1.506737	-0.212589	0.127489	
1249.141	0.000961	-1.734066	2.917357	1.668345	2.737286	1.507378	-0.213031	0.127550	
1250.141	0.001923	-1.733913	2.917006	1.668467	2.737393	1.507118	-0.212848	0.127337	
1251.142	0.002151	-1.734020	2.917372	1.668314	2.737942	1.506554	-0.211475	0.127352	
1252.142	0.002167	-1.734264	2.917601	1.667918	2.738018	1.506065	-0.212039	0.127214	
1253.142	0.002335	-1.734203	2.917052	1.668269	2.738034	1.506950	-0.212680	0.127428	
1254.142	0.000259	-1.734050	2.917159	1.668406	2.738079	1.507820	-0.213489	0.127596	
1255.143	0.000885	-1.734081	2.917037	1.668574	2.738384	1.507164	-0.212787	0.127275	
1256.143	0.001984	-1.734279	2.917144	1.668131	2.738690	1.506370	-0.211948	0.127031	
1257.143	0.002121	-1.734508	2.917357	1.668299	2.738873	1.506447	-0.212039	0.126802	
1258.140	0.000839	-1.733928	2.917067	1.668299	2.738812	1.507255	-0.212619	0.127489	
1259.143	0.000473	-1.734233	2.917174	1.668421	2.738964	1.507622	-0.213092	0.127077	
1260.143	0.000549	-1.734157	2.917022	1.668299	2.739346	1.506706	-0.212680	0.127062	
1261.144	0.001328	-1.734295	2.917327	1.668040	2.739788	1.506126	-0.211673	0.126833	
1262.144	0.002167	-1.734310	2.917205	1.668070	2.739804	1.506111	-0.211902	0.126665	
1263.144	0.000153	-1.733745	2.916701	1.667750	2.739773	1.507332	-0.213047	0.126894	
1264.145	-0.000519	-1.734157	2.916854	1.668238	2.740155	1.507286	-0.213184	0.126848	
1265.145	0.000214	-1.734111	2.916991	1.668024	2.740139	1.506798	-0.212085	0.127001	
1266.145	0.000992	-1.734356	2.917296	1.668162	2.740643	1.506233	-0.211429	0.126787	
1267.146	0.000626	-1.734172	2.917281	1.667994	2.740704	1.506248	-0.211688	0.126650	
1268.140	-0.001160	-1.734111	2.916732	1.668162	2.740673	1.507393	-0.212573	0.127443	
1269.145	-0.000885	-1.733928	2.916869	1.668131	2.740826	1.507515	-0.213092	0.126970	
1270.146	0.000214	-1.734523	2.916899	1.667857	2.741070	1.506767	-0.212116	0.126879	
1271.146	0.001740	-1.734249	2.917144	1.667658	2.741329	1.506065	-0.211368	0.126650	
1272.146	0.000458	-1.734493	2.917479	1.667612	2.741558	1.506279	-0.212116	0.126711	
1273.146	-0.000671	-1.734020	2.917113	1.667963	2.741421	1.507072	-0.213077	0.126802	
1274.147	-0.001526	-1.734020	2.916915	1.667673	2.741665	1.507286	-0.212955	0.127062	
1275.147	0.000076	-1.734203	2.917342	1.667506	2.741879	1.506447	-0.211978	0.126711	
1276.147	0.000504	-1.734218	2.917525	1.667658	2.742352	1.505806	-0.211460	0.126589	
1277.132	0.001297	-1.734050	2.917800	1.667582	2.742337	1.506279	-0.212146	0.126680	
1278.140	-0.001007	-1.734066	2.917464	1.667628	2.742306	1.507851	-0.213169	0.127474	
1279.132	-0.000626	-1.733959	2.917540	1.667582	2.742504	1.507301	-0.212772	0.126955	
1280.133	0.000336	-1.734020	2.917937	1.667124	2.742886	1.506279	-0.211917	0.126818	
1281.133	0.000778	-1.734188	2.917678	1.667002	2.743115	1.506157	-0.211429	0.126802	
1282.133	0.000717	-1.733913	2.917708	1.666544	2.743038	1.506813	-0.212329	0.126833	
1283.133	-0.000168	-1.734188	2.916777	1.666499	2.743084	1.507332	-0.212970	0.127047	
1284.134	-0.000336	-1.734066	2.916671	1.666148	2.743374	1.507118	-0.213153	0.127077	
1285.134	0.000793	-1.734493	2.916686	1.665446	2.743542	1.506615	-0.211963	0.126970	
1286.134	0.001984	-1.734081	2.916411	1.664942	2.743756	1.506340	-0.211627	0.126787	
1287.135	0.001678	-1.734279	2.915847	1.664652	2.743603	1.506752	-0.212146	0.126940	
1288.140	0.000961	-1.734081	2.915404	1.664515	2.743511	1.507469	-0.212894	0.127413	
1289.135	0.000977	-1.733883	2.915251	1.663996	2.743817	1.507362	-0.212894	0.126925	
1290.136	0.003616	-1.734188	2.914962	1.663538	2.744244	1.506645	-0.212085	0.126558	
1291.136	0.003418	-1.734462	2.915038	1.663050	2.744396	1.506157	-0.211902	0.126848	
1292.136	0.002426	-1.733913	2.914672	1.662867	2.744183	1.507027	-0.212558	0.126818	
1293.137	0.001465	-1.734157	2.914016	1.662547	2.744259	1.507576	-0.213352	0.127062	
1294.141	0.003769	-1.734050	2.913909	1.662485	2.744564	1.506828	-0.212726	0.127642	
1295.138	0.003372	-1.734035	2.913878	1.661799	2.744702	1.506142	-0.211856	0.126711	
1296.139	0.004929	-1.734401	2.914290	1.661417	2.745114	1.506950	-0.211475	0.126802	
1297.139	0.002991	-1.733883	2.913863	1.661372	2.744992	1.507439	-0.212665	0.126863	
1298.141	0.002426	-1.734020	2.913512	1.661204	2.744976	1.507439	-0.213123	0.127489	
1299.141	0.003342	-1.734233	2.913771	1.661097	2.745266	1.506737	-0.212573	0.127275	
1300.141	0.003632	-1.734432	2.913680	1.660761	2.745449	1.506355	-0.211688	0.127184	
1301.142	0.004028	-1.734142	2.913756	1.660609	2.745419	1.506035	-0.212024	0.126879	
1302.142	0.003082	-1.734127	2.913863	1.660624	2.745648	1.507408	-0.212299	0.127260	
1303.142	0.002487	-1.733989	2.913710	1.660761	2.745724	1.507698	-0.212818	0.127352	
1304.143	0.002472	-1.734188	2.914138	1.660151	2.745922	1.506294	-0.212284	0.127108	
1305.143	0.004044	-1.734325	2.914565	1.660151	2.746350	1.506233	-0.211719	0.126589	
1306.143	0.004028	-1.734249	2.915038	1.660212	2.746380	1.506584	-0.212009	0.126986	
1307.144	0.002380	-1.733806	2.914916	1.660273	2.746121	1.507393	-0.212696	0.127031	
1308.140	0.001831	-1.734005	2.915007	1.660395	2.746395	1.507744	-0.212985	0.127230	
1309.143	0.002991	-1.734035	2.915404	1.660578	2.746823	1.506782	-0.212284	0.127489	
1310.143	0.003098	-1.734447	2.916335	1.660456	2.747143	1.506355	-0.211780	0.127504	
1311.144	0.003479	-1.734157	2.916548	1.660441	2.747097	1.506157	-0.211902	0.127382	
1312.144	0.000992	-1.734020	2.916976	1.660746	2.747021	1.507576	-0.212924	0.127474	
1313.144	0.001236	-1.733852	2.917098	1.661005	2.747265	1.507530	-0.212848	0.127657	
1314.145	0.002228	-1.734066	2.918029	1.661127	2.747540	1.506401	-0.212268	0.127489	
1315.145	0.002457	-1.734233	2.918624	1.660990	2.747799	1.506355	-0.211765	0.127214	
1316.145	0.001129	-1.734172	2.919051	1.661478	2.747952	1.506355	-0.212024	0.126986	
1317.146	0.000961	-1.733913	2.919692	1.661921	2.747860	1.507439	-0.213001	0.127169	
1318.140	0.000381	-1.734005	2.920226	1.662150	2.747967	1.507561	-0.213138	0.127016	
1319.147	0.001251	-1.734203	2.920867	1.662501	2.748547	1.506874	-0.211872	0.126955	
1320.147	0.001511	-1.734264	2.921340	1.662989	2.748821	1.506416	-0.211490	0.126894	
1321.147	0.001007	-1.734066	2.921752	1.663370	2.748791	1.506706	-0.212284	0.126986	
1322.132	-0.001038	-1.734005	2.922118	1.663905	2.748928	1.507622	-0.212741	0.126909	
1323.132	-0.001740	-1.734188	2.922393	1.664362	2.749264	1.507072	-0.212772	0.127169	
1324.132	-0.000183	-1.734203	2.922973	1.664530	2.749569	1.506294	-0.211917	0.126452	
1325.133	0.000076	-1.734279	2.923690	1.664866	2.749737	1.506081	-0.211688	0.126802	
1326.133	-0.000824	-1.734142	2.923980	1.665247	2.749996	1.506660	-0.212162	0.126497	
1327.133	-0.002716	-1.733806	2.924087	1.665720	2.750271	1.507500	-0.212909	0.126894	
1328.140	0.003632	-1.734050	2.924194	1.666193	2.750363	1.507316	-0.212512	0.127398	
1329.140	0.005066	-1.734340	2.925033	1.666193	2.750958	1.506218	-0.211521	0.127108	
1330.141	0.004120	-1.734218	2.925109	1.666376	2.751049	1.506111	-0.211582	0.126818	
1331.135	0.003723	-1.733928	2.925231	1.666666	2.750942	1.507316	-0.212635	0.126909	
1332.135	0.002823	-1.734020	2.925338	1.667277	2.751110	1.507744	-0.213138	0.127047	
1333.136	0.003204	-1.734096	2.925277	1.667155	2.751339	1.507469	-0.213001	0.127153	
1334.141	0.004120	-1.734264	2.925491	1.667368	2.751873	1.506401	-0.211780	0.126894	
1335.142	0.003662	-1.734066	2.926025	1.667292	2.752011	1.506340	-0.211948	0.126940	
1336.142	0.003235	-1.733852	2.925735	1.667521	2.751904	1.506996	-0.212924	0.127214	
1337.142	0.001953	-1.733852	2.925613	1.667872	2.752331	1.507851	-0.213397	0.127214	
1338.140	0.002563	-1.734096	2.925628	1.667872	2.752529	1.506828	-0.212329	0.126711	
1339.142	0.002640	-1.734142	2.925948	1.667750	2.753063	1.506355	-0.211566	0.126711	
1340.145	0.003479	-1.734279	2.925933	1.667612	2.753048	1.506737	-0.212070	0.126970	
1341.145	0.001968	-1.734127	2.925781	1.668085	2.753201	1.507408	-0.212772	0.127092	
1342.145	0.001755	-1.733760	2.925521	1.667872	2.753124	1.507591	-0.213214	0.127230	
1343.146	0.002701	-1.734142	2.925475	1.668055	2.753536	1.507133	-0.212253	0.127016	
1344.146	0.002579	-1.734233	2.925719	1.667719	2.753918	1.506172	-0.211582	0.126909	
1345.146	0.002945	-1.734203	2.925613	1.667933	2.753964	1.506294	-0.211948	0.126818	
1346.147	0.001602	-1.733974	2.925216	1.667918	2.754009	1.507179	-0.212940	0.127077	
1347.147	0.001343	-1.734081	2.925048	1.668375	2.754162	1.507774	-0.212970	0.127260	
1348.140	0.002350	-1.734188	2.925292	1.668223	2.754833	1.506935	-0.212177	0.127184	
1349.147	0.003708	-1.734172	2.925369	1.667933	2.754849	1.506081	-0.211521	0.126665	
1350.147	0.002716	-1.734005	2.925353	1.668009	2.754910	1.506782	-0.212009	0.126650	
1351.147	0.001770	-1.733913	2.924880	1.668162	2.754925	1.507347	-0.212955	0.126955	
1352.132	-0.000488	-1.733791	2.924865	1.668009	2.755139	1.507667	-0.213214	0.127077	
1353.132	0.002563	-1.734127	2.925033	1.668009	2.755505	1.506569	-0.212085	0.126741	
1354.147	0.002441	-1.734127	2.924819	1.667902	2.755780	1.506111	-0.211948	0.126802	
1355.134	0.001846	-1.734127	2.924484	1.667948	2.755841	1.506630	-0.212421	0.127199	
1356.134	0.001434	-1.733989	2.924514	1.668101	2.755856	1.507378	-0.212924	0.127275	
1357.135	0.000961	-1.733745	2.924468	1.668055	2.755993	1.507255	-0.212970	0.127398	
1358.140	0.001785	-1.734157	2.924255	1.667826	2.756420	1.506569	-0.211978	0.127153	
1359.147	0.002655	-1.734066	2.924438	1.667643	2.756649	1.506004	-0.211414	0.126467	
1360.132	0.002075	-1.733974	2.924468	1.667658	2.756619	1.506874	-0.212284	0.126497	
1361.136	0.001709	-1.733913	2.923934	1.667948	2.756756	1.507667	-0.212894	0.127260	
1362.136	0.001007	-1.734005	2.924026	1.668223	2.757168	1.507454	-0.213016	0.127413	
1363.136	0.002640	-1.734172	2.923934	1.667796	2.757458	1.506462	-0.211887	0.127214	
1364.137	0.002670	-1.734035	2.924209	1.667658	2.757580	1.506172	-0.211719	0.127169	
1365.137	0.002243	-1.733806	2.924056	1.667796	2.757687	1.506904	-0.212314	0.127169	
1366.137	0.000549	-1.734035	2.923812	1.668131	2.757672	1.507988	-0.213230	0.127398	
1367.138	0.000961	-1.733944	2.923385	1.668085	2.757839	1.507515	-0.212650	0.127382	
1368.141	0.002487	-1.734356	2.924117	1.667826	2.758496	1.506721	-0.211597	0.126619	
1369.141	0.003098	-1.734127	2.923949	1.667796	2.758419	1.506599	-0.211887	0.126452	
1370.139	0.001114	-1.733883	2.924072	1.667933	2.758480	1.507408	-0.212802	0.126665	
1371.139	0.000443	-1.733730	2.923507	1.667994	2.758572	1.507484	-0.213092	0.126741	
1372.140	0.001328	-1.734081	2.923751	1.667994	2.758892	1.506996	-0.212818	0.126680	
1373.142	0.002426	-1.734066	2.923797	1.667780	2.759365	1.506325	-0.211688	0.126650	
1374.142	0.002335	-1.734386	2.923858	1.667673	2.759411	1.506752	-0.211933	0.126543	
1375.142	0.001175	-1.733944	2.923492	1.667750	2.759426	1.507072	-0.212482	0.126772	
1376.143	0.000443	-1.733699	2.923721	1.667979	2.759686	1.507622	-0.213413	0.127031	
1377.143	0.002579	-1.734066	2.923324	1.667796	2.759930	1.506767	-0.212299	0.126833	
1378.140	0.002045	-1.734356	2.923537	1.667445	2.760372	1.506462	-0.211902	0.126757	
1379.143	0.002060	-1.733959	2.923431	1.667429	2.760311	1.506615	-0.211536	0.126635	
1380.143	0.000595	-1.733913	2.923156	1.667689	2.760418	1.507347	-0.212833	0.126802	
1381.143	0.001190	-1.733852	2.923126	1.667765	2.760586	1.507683	-0.213184	0.126986	
1382.144	0.001266	-1.734310	2.923187	1.667612	2.760815	1.506523	-0.212375	0.126741	
1383.144	0.002396	-1.734295	2.923171	1.667429	2.761318	1.506248	-0.211505	0.126574	
1384.144	0.001511	-1.734020	2.923492	1.667414	2.761364	1.506523	-0.211963	0.126696	
1385.145	0.000824	-1.733959	2.923156	1.667551	2.761318	1.507500	-0.212528	0.126528	
1386.145	0.000336	-1.733730	2.922759	1.667719	2.761517	1.507576	-0.213336	0.127367	
1387.145	0.000870	-1.734035	2.923141	1.667612	2.762142	1.506874	-0.211994	0.127230	
1388.140	0.002258	-1.734310	2.922912	1.667414	2.762341	1.506340	-0.211475	0.127428	
1389.145	0.001617	-1.734203	2.922958	1.667429	2.762188	1.506554	-0.211963	0.126741	
1390.145	0.000076	-1.733760	2.922912	1.667704	2.762326	1.507805	-0.213001	0.127657	
1391.146	-0.000397	-1.733944	2.922576	1.667689	2.762493	1.507667	-0.212970	0.127337	
1392.146	0.001450	-1.734127	2.922836	1.667811	2.762829	1.506325	-0.212360	0.127108	
1393.146	0.001953	-1.734066	2.922881	1.667445	2.763241	1.506019	-0.211246	0.127260	
1394.147	0.001907	-1.734020	2.922668	1.667460	2.763195	1.506615	-0.212360	0.127062	
1395.147	-0.000122	-1.734111	2.922775	1.668024	2.763394	1.507622	-0.213184	0.127642	
1396.147	-0.000061	-1.733883	2.922485	1.667963	2.763455	1.507149	-0.212970	0.127749	
1397.132	0.001450	-1.734188	2.922973	1.667841	2.763943	1.506492	-0.212177	0.127535	
1398.140	0.001495	-1.734111	2.923248	1.667567	2.764126	1.506035	-0.211612	0.126574	
1399.140	0.001663	-1.734096	2.923003	1.667765	2.764004	1.507057	-0.212421	0.126757	
1400.133	-0.000092	-1.733913	2.922790	1.668101	2.764233	1.507469	-0.213413	0.127565	
1401.133	-0.000336	-1.734142	2.922668	1.668345	2.764431	1.507255	-0.212543	0.127779	
1402.133	0.001038	-1.734264	2.922973	1.667933	2.764828	1.505913	-0.211322	0.127230	
1403.134	0.000885	-1.734127	2.923080	1.667933	2.765103	1.506172	-0.211902	0.127626	
1404.134	-0.000397	-1.733852	2.923064	1.668146	2.765042	1.506996	-0.212558	0.127489	
1405.134	-0.000214	-1.734005	2.922652	1.668543	2.765133	1.507606	-0.213123	0.127916	
1406.135	-0.000076	-1.734050	2.922942	1.668177	2.765515	1.506859	-0.212482	0.128069	
1407.135	0.000778	-1.734005	2.923370	1.668192	2.765759	1.506477	-0.211856	0.127382	
1408.140	0.001144	-1.734172	2.923614	1.668497	2.766064	1.506676	-0.211765	0.127016	
1409.136	0.000061	-1.733791	2.923156	1.668421	2.765881	1.507484	-0.212757	0.127581	
1410.136	-0.001068	-1.733898	2.923232	1.668497	2.766125	1.507942	-0.213214	0.127855	
1411.137	-0.001007	-1.734081	2.923156	1.668360	2.766339	1.506798	-0.213108	0.127718	
1412.137	0.001038	-1.733898	2.923370	1.668604	2.767010	1.506370	-0.211505	0.127123	
1413.137	0.000290	-1.734096	2.923537	1.668452	2.767087	1.506523	-0.211734	0.127077	
1414.141	-0.000290	-1.733913	2.923751	1.668818	2.767071	1.507164	-0.213031	0.126848	
1415.139	-0.002472	-1.733883	2.923553	1.668787	2.767102	1.507805	-0.213047	0.127504	
1416.140	0.005722	-1.733944	2.923446	1.668757	2.767499	1.506904	-0.212619	0.127153	
1417.140	0.006989	-1.734020	2.923766	1.668742	2.767712	1.505958	-0.211490	0.126848	
1418.139	0.006851	-1.732998	2.923736	1.668696	2.768124	1.506401	-0.211750	0.126848	
1419.142	0.000031	-1.732967	2.923888	1.668864	2.767987	1.506950	-0.212924	0.126787	
1420.142	-0.002106	-1.732952	2.923751	1.669154	2.767941	1.507469	-0.213123	0.127382	
1421.142	0.004822	-1.732906	2.923736	1.668742	2.768414	1.506843	-0.212238	0.126741	
1422.142	0.005661	-1.733120	2.924148	1.668986	2.768918	1.505760	-0.211215	0.126955	
1423.143	0.005341	-1.732906	2.923827	1.668955	2.768872	1.506874	-0.211994	0.126757	
1424.143	0.004227	-1.732799	2.923904	1.669245	2.768857	1.507194	-0.213153	0.127413	
1425.143	0.003616	-1.733120	2.924102	1.669260	2.769147	1.507378	-0.213062	0.127337	
1426.144	0.005096	-1.732998	2.924026	1.669077	2.769727	1.506126	-0.212299	0.127459	
1427.144	0.005325	-1.733104	2.923904	1.668879	2.769818	1.506462	-0.211780	0.126879	
1428.140	0.003494	-1.732952	2.924514	1.669016	2.769925	1.506294	-0.212055	0.127062	
1429.145	0.003235	-1.732708	2.923843	1.669505	2.769864	1.507606	-0.213031	0.126925	
1430.145	0.003555	-1.732784	2.923980	1.669733	2.770276	1.507515	-0.213291	0.127443	
1431.145	0.004944	-1.732952	2.923995	1.669367	2.770581	1.506554	-0.211688	0.126741	
1432.146	0.004669	-1.733013	2.924789	1.669077	2.770764	1.505913	-0.211383	0.126696	
1433.146	0.003891	-1.732891	2.924239	1.669505	2.770612	1.506935	-0.211963	0.126635	
1434.146	0.003296	-1.732830	2.924285	1.669855	2.770810	1.507515	-0.213169	0.127031	
1435.146	0.003754	-1.732631	2.924178	1.669932	2.770932	1.507515	-0.213092	0.126711	
1436.147	0.004318	-1.733104	2.924621	1.669733	2.771558	1.506706	-0.211536	0.126665	
1437.147	0.004791	-1.733226	2.924834	1.669657	2.771710	1.506081	-0.211765	0.126665	
1438.140	0.003464	-1.733013	2.924636	1.669642	2.771909	1.507164	-0.212680	0.126848	
1439.147	0.003113	-1.732784	2.924575	1.669978	2.771893	1.507591	-0.213184	0.127077	
1440.132	0.003311	-1.732860	2.924361	1.669779	2.772214	1.507286	-0.212772	0.127031	
1441.132	0.004272	-1.732952	2.924590	1.669932	2.772397	1.506554	-0.211856	0.126863	
1442.133	0.004181	-1.733425	2.924773	1.669596	2.772656	1.506203	-0.211841	0.126925	
1443.133	0.003403	-1.732906	2.924682	1.669855	2.772595	1.507118	-0.213031	0.127214	
1444.133	0.002701	-1.732891	2.924407	1.670115	2.772763	1.507805	-0.213535	0.127581	
1445.134	0.002594	-1.732921	2.924514	1.669871	2.773190	1.507149	-0.212589	0.127489	
1446.134	0.004425	-1.733196	2.924880	1.670008	2.773602	1.506325	-0.211933	0.127245	
1447.134	0.003464	-1.732906	2.924941	1.669794	2.773724	1.506004	-0.211551	0.127077	
1448.140	0.003693	-1.733257	2.924697	1.670206	2.773862	1.507393	-0.212604	0.126955	
1449.140	0.002899	-1.732921	2.924682	1.670176	2.773938	1.507439	-0.213504	0.127367	
1450.140	0.002487	-1.733150	2.924453	1.670252	2.773938	1.506889	-0.212604	0.127367	
1451.136	0.003723	-1.733104	2.924987	1.670039	2.774533	1.505989	-0.211597	0.126314	
1452.136	0.004120	-1.733043	2.925246	1.669718	2.774548	1.506187	-0.211933	0.126345	
1453.136	0.002594	-1.732845	2.925079	1.670237	2.774579	1.507515	-0.212863	0.126757	
1454.141	0.001846	-1.732631	2.924773	1.670435	2.774777	1.507408	-0.213031	0.127398	
1455.141	0.001450	-1.733104	2.924957	1.670130	2.774960	1.506584	-0.212207	0.127275	
1456.141	0.003708	-1.733043	2.925002	1.670328	2.775357	1.506126	-0.211414	0.127108	
1457.142	0.003250	-1.733059	2.925155	1.670222	2.775372	1.506309	-0.211933	0.127016	
1458.139	0.002243	-1.732814	2.925079	1.670603	2.775479	1.507530	-0.212924	0.127352	
1459.141	0.001953	-1.732769	2.924972	1.670435	2.775525	1.507439	-0.213382	0.127337	
1460.143	0.003082	-1.733043	2.925185	1.670618	2.776334	1.506508	-0.212436	0.127047	
1461.143	0.003098	-1.733226	2.925414	1.670161	2.776501	1.506065	-0.211597	0.126604	
1462.143	0.003235	-1.733013	2.925491	1.670298	2.776791	1.506660	-0.211765	0.126467	
1463.144	0.001312	-1.732799	2.925216	1.670542	2.776379	1.507622	-0.212863	0.126497	
1464.144	0.001526	-1.732784	2.925094	1.670634	2.776837	1.507515	-0.213550	0.126543	
1465.144	0.002975	-1.733028	2.925491	1.670618	2.777158	1.506370	-0.211933	0.126314	
1466.145	0.002899	-1.733120	2.925414	1.670435	2.777280	1.505958	-0.211338	0.126467	
1467.145	0.002396	-1.733181	2.925536	1.670725	2.777508	1.506660	-0.212528	0.126146	
1468.139	0.000397	-1.732906	2.925262	1.670725	2.777554	1.507744	-0.212833	0.126863	
1469.147	0.001343	-1.733303	2.925155	1.670740	2.777737	1.507515	-0.213153	0.126879	
1470.147	0.002319	-1.732921	2.925506	1.670695	2.778012	1.506737	-0.211872	0.126879	
1471.132	0.002502	-1.733318	2.925781	1.670573	2.778271	1.505974	-0.211887	0.127001	
1472.146	0.002319	-1.732860	2.925475	1.670649	2.778394	1.507210	-0.211933	0.126345	
1473.146	0.000992	-1.732860	2.925292	1.670771	2.778287	1.507454	-0.213092	0.127214	
1474.147	0.001221	-1.732967	2.925414	1.670878	2.778668	1.507301	-0.213016	0.126986	
1475.147	0.002701	-1.732769	2.925674	1.670603	2.779141	1.506615	-0.211811	0.126925	
1476.147	0.002884	-1.733181	2.925765	1.670725	2.779248	1.506111	-0.211444	0.127062	
1477.132	0.003006	-1.732921	2.925475	1.670985	2.779584	1.506859	-0.212528	0.127260	
1478.139	0.000763	-1.733013	2.925597	1.671046	2.779584	1.507896	-0.213199	0.126741	
1479.147	0.001144	-1.733043	2.925506	1.670756	2.779614	1.507011	-0.212726	0.127169	
1480.132	0.002289	-1.733348	2.925628	1.670969	2.780041	1.505867	-0.211673	0.126925	
1481.135	0.002472	-1.733135	2.925811	1.670710	2.780240	1.506660	-0.211917	0.127260	
1482.133	0.001297	-1.732967	2.925475	1.671122	2.780057	1.507362	-0.212573	0.127169	
1483.133	0.000381	-1.732677	2.925277	1.671091	2.780255	1.508003	-0.212879	0.127367	
1484.132	0.001495	-1.733104	2.925719	1.671290	2.780759	1.506966	-0.212573	0.127214	
1485.133	0.002090	-1.733013	2.925643	1.671168	2.781018	1.506004	-0.212268	0.127169	
1486.133	0.002197	-1.733059	2.925872	1.670908	2.781094	1.506370	-0.212238	0.127047	
1487.133	0.001266	-1.732814	2.925613	1.671122	2.781155	1.507149	-0.212604	0.127123	
1488.139	0.000336	-1.732860	2.925872	1.671290	2.781430	1.507484	-0.213016	0.126909	
1489.140	0.001404	-1.733059	2.925887	1.671137	2.781964	1.507149	-0.212528	0.126696	
1490.134	0.001953	-1.733059	2.926254	1.671275	2.782010	1.505989	-0.211597	0.126680	
1491.134	0.001785	-1.733074	2.925903	1.670969	2.781979	1.506615	-0.212070	0.126619	
1492.135	0.000778	-1.732845	2.926147	1.671320	2.782254	1.507591	-0.213123	0.126879	
1493.135	0.000046	-1.732723	2.925750	1.671397	2.782117	1.507332	-0.213184	0.126970	
1494.135	0.001190	-1.733089	2.926055	1.671412	2.782742	1.506599	-0.212177	0.126879	
1495.136	0.001831	-1.733181	2.926025	1.671015	2.782834	1.505989	-0.211795	0.126894	
1496.136	0.001816	-1.733211	2.926330	1.671183	2.782941	1.506615	-0.212345	0.126940	
1497.136	-0.000122	-1.732952	2.925903	1.671473	2.783078	1.507622	-0.212970	0.127123	
1498.139	0.000107	-1.732708	2.925872	1.671564	2.783429	1.507744	-0.212940	0.127337	
1499.137	0.000748	-1.733242	2.926116	1.671519	2.783841	1.506904	-0.212268	0.127352	
1500.137	0.001602	-1.732845	2.926330	1.671412	2.783826	1.506325	-0.211582	0.127016	
1501.138	0.000961	-1.733303	2.926254	1.671580	2.784055	1.506584	-0.212299	0.126970	
1502.138	0.000137	-1.733074	2.926025	1.671656	2.784299	1.507652	-0.213031	0.127367	
1503.138	-0.000504	-1.732921	2.926223	1.671794	2.784344	1.507942	-0.213214	0.127169	
1504.140	0.000992	-1.733211	2.926162	1.671595	2.784634	1.506355	-0.211811	0.126635	
1505.141	0.001953	-1.733150	2.926391	1.671427	2.784940	1.506325	-0.211673	0.126543	
1506.141	0.000565	-1.732860	2.926055	1.671580	2.784894	1.506874	-0.212482	0.126589	
1507.141	0.000214	-1.732937	2.926360	1.671748	2.785092	1.507423	-0.213321	0.126772	
1508.139	-0.000061	-1.732845	2.926360	1.671717	2.785306	1.507255	-0.213047	0.126894	
1509.141	0.001724	-1.733211	2.926589	1.671656	2.785718	1.506706	-0.211994	0.126665	
1510.141	0.001495	-1.733165	2.926498	1.671625	2.785809	1.506065	-0.211627	0.126467	
1511.144	0.000320	-1.732875	2.926666	1.671610	2.785931	1.507164	-0.212421	0.126314	
1512.144	-0.000595	-1.732814	2.926345	1.671870	2.785931	1.507866	-0.213657	0.126543	
1513.144	-0.000427	-1.732830	2.926833	1.671748	2.786450	1.507133	-0.213062	0.126360	
1514.145	0.000748	-1.733135	2.926711	1.671901	2.786771	1.506126	-0.212009	0.126452	
1515.145	0.000763	-1.732952	2.927047	1.671977	2.787076	1.506172	-0.211536	0.126207	
1516.145	0.000000	-1.733104	2.926955	1.672084	2.787045	1.507103	-0.212985	0.126406	
1517.146	-0.000549	-1.732677	2.926574	1.672160	2.787015	1.507408	-0.213321	0.126635	
1518.139	-0.000824	-1.732952	2.926482	1.672053	2.787305	1.507194	-0.212421	0.126574	
1519.146	0.000748	-1.733257	2.926910	1.671839	2.787778	1.506508	-0.211780	0.126574	
1520.146	0.000427	-1.733226	2.926971	1.671962	2.787823	1.506142	-0.211780	0.126574	
1521.146	-0.000870	-1.732906	2.926864	1.671916	2.787747	1.507210	-0.212909	0.126970	
1522.147	-0.001526	-1.732921	2.926650	1.672374	2.788251	1.507652	-0.213245	0.127047	
1523.147	-0.000488	-1.732708	2.926528	1.672084	2.788464	1.507118	-0.212360	0.127001	
1524.147	0.000443	-1.732998	2.927078	1.671977	2.788739	1.505989	-0.211490	0.126696	
1525.132	0.000290	-1.732937	2.926925	1.672114	2.788937	1.506462	-0.212100	0.126802	
1526.132	-0.000290	-1.732769	2.926879	1.672527	2.789014	1.507378	-0.213031	0.126925	
1527.133	-0.001236	-1.732875	2.926498	1.672450	2.789014	1.507698	-0.213352	0.127153	
1528.139	-0.000687	-1.733120	2.926971	1.672282	2.789502	1.507027	-0.212482	0.126436	
1529.135	0.001129	-1.733120	2.927306	1.672145	2.789792	1.506096	-0.211353	0.126848	
1530.135	0.000137	-1.732998	2.927093	1.672221	2.789761	1.506645	-0.212100	0.126696	
1531.135	-0.000168	-1.732860	2.927062	1.672160	2.790036	1.507286	-0.212467	0.126757	
1532.136	-0.002167	-1.732937	2.927184	1.672496	2.790051	1.507347	-0.213062	0.126741	
1533.136	0.005325	-1.732891	2.927306	1.672343	2.790219	1.506538	-0.212146	0.126467	
1534.136	0.006042	-1.732875	2.927459	1.672221	2.790768	1.505882	-0.211750	0.126192	
1535.133	0.006622	-1.732723	2.927474	1.672405	2.790997	1.506508	-0.211643	0.126131	
1536.134	0.000443	-1.732662	2.927306	1.672878	2.790982	1.507469	-0.212879	0.126543	
1537.137	0.000748	-1.732738	2.927261	1.672649	2.791013	1.507271	-0.213138	0.126390	
1538.141	0.000793	-1.732662	2.927627	1.672664	2.791547	1.506584	-0.212467	0.126986	
1539.142	0.001282	-1.732952	2.927551	1.672649	2.791928	1.506065	-0.211734	0.126909	
1540.142	0.000107	-1.732799	2.927596	1.672786	2.791913	1.506508	-0.211978	0.126787	
1541.138	-0.000397	-1.732479	2.927718	1.672740	2.791913	1.507561	-0.212772	0.126406	
1542.138	-0.000229	-1.732509	2.927657	1.672786	2.792126	1.507439	-0.212787	0.126802	
1543.138	0.000641	-1.732814	2.927825	1.672633	2.792554	1.506813	-0.211917	0.126543	
1544.139	-0.000595	-1.732921	2.928115	1.672755	2.792844	1.506447	-0.211856	0.126452	
1545.139	0.001358	-1.732967	2.927932	1.672755	2.792935	1.506920	-0.212131	0.126680	
1546.139	-0.000610	-1.732463	2.927749	1.673076	2.792828	1.507820	-0.213321	0.126757	
1547.140	-0.000412	-1.732662	2.927596	1.673061	2.792966	1.507454	-0.212802	0.127199	
1548.139	0.000336	-1.732967	2.927917	1.672755	2.793332	1.506599	-0.211887	0.126589	
1549.139	0.000885	-1.732952	2.928222	1.672862	2.793683	1.506630	-0.211566	0.126558	
1550.142	-0.000046	-1.732814	2.927886	1.672847	2.793729	1.506996	-0.212238	0.127031	
1551.142	-0.002228	-1.732402	2.927520	1.673030	2.793713	1.507667	-0.213245	0.127275	
1552.142	0.003403	-1.732875	2.927612	1.673091	2.794171	1.507149	-0.212665	0.127138	
1553.143	0.003754	-1.732753	2.927947	1.672908	2.794430	1.506416	-0.211612	0.126925	
1554.143	0.003769	-1.732784	2.927993	1.672801	2.794675	1.506111	-0.211673	0.126863	
1555.143	0.002411	-1.732570	2.927734	1.672984	2.794720	1.507408	-0.212589	0.126711	
1556.144	0.002106	-1.732418	2.927902	1.673351	2.795056	1.507515	-0.213123	0.126879	
1557.144	0.002670	-1.732647	2.927810	1.672984	2.795361	1.507088	-0.212451	0.126787	
1558.138	0.003479	-1.732845	2.927902	1.673045	2.795789	1.506386	-0.211551	0.126925	
1559.144	0.003525	-1.732601	2.928420	1.672923	2.795682	1.506554	-0.211643	0.126085	
1560.145	0.002228	-1.732570	2.927993	1.673351	2.795987	1.507515	-0.212772	0.126345	
1561.145	0.001358	-1.732387	2.927871	1.673229	2.795941	1.507530	-0.213382	0.126863	
1562.145	0.002335	-1.732784	2.927978	1.673015	2.796323	1.507088	-0.212512	0.126726	
1563.145	0.001602	-1.732906	2.928313	1.673183	2.796811	1.506340	-0.211353	0.126619	
1564.146	0.003403	-1.732677	2.928283	1.672954	2.796719	1.506660	-0.211811	0.126711	
1565.146	0.002151	-1.732631	2.928054	1.673549	2.796857	1.507362	-0.213336	0.127062	
1566.146	0.001617	-1.732509	2.927718	1.673412	2.797040	1.507408	-0.212985	0.127092	
1567.147	0.002533	-1.732708	2.928130	1.673457	2.797620	1.506660	-0.212253	0.126955	
1568.138	0.003387	-1.732891	2.928405	1.673244	2.797696	1.506492	-0.211994	0.126375	
1569.147	0.002808	-1.732784	2.928161	1.673396	2.797894	1.506767	-0.211963	0.126696	
1570.147	0.001465	-1.732433	2.928420	1.673564	2.798032	1.507545	-0.213138	0.126940	
1571.147	-0.000290	-1.732296	2.928069	1.673686	2.798169	1.507225	-0.212985	0.126894	
1572.132	0.002441	-1.732647	2.928313	1.673656	2.798551	1.506630	-0.211978	0.126558	
1573.140	0.003281	-1.732845	2.928680	1.673351	2.798581	1.506599	-0.211475	0.126741	
1574.132	0.002090	-1.732692	2.928771	1.673488	2.798825	1.506447	-0.212451	0.126146	
1575.133	0.001434	-1.732418	2.928390	1.673595	2.798764	1.507423	-0.213153	0.126482	
1576.133	0.001663	-1.732662	2.928390	1.673717	2.799100	1.507225	-0.213062	0.126635	
1577.133	0.002228	-1.732860	2.928436	1.673305	2.799466	1.506752	-0.212177	0.126665	
1578.139	0.002747	-1.733013	2.928878	1.673396	2.799909	1.506218	-0.211627	0.126863	
1579.141	0.002975	-1.732753	2.928558	1.673763	2.799710	1.506981	-0.212451	0.126619	
1580.135	0.001312	-1.732525	2.927963	1.673839	2.799893	1.507530	-0.213184	0.127245	
1581.135	0.001236	-1.732677	2.928252	1.673946	2.800244	1.507454	-0.212818	0.127199	
1582.135	0.001907	-1.732860	2.928573	1.673686	2.800519	1.506187	-0.211994	0.126680	
1583.136	0.002258	-1.732967	2.929076	1.673442	2.800794	1.506370	-0.211475	0.126558	
1584.142	0.001648	-1.732753	2.928710	1.673763	2.800672	1.507072	-0.212467	0.126513	
1585.142	0.000839	-1.732525	2.928695	1.674007	2.800855	1.507515	-0.213016	0.126802	
1586.138	0.001144	-1.732601	2.928771	1.674098	2.801099	1.507316	-0.212650	0.126497	
1587.138	0.002243	-1.732952	2.929046	1.673763	2.801663	1.505958	-0.211719	0.126329	
1588.138	0.002029	-1.732921	2.928924	1.673839	2.801892	1.506096	-0.211200	0.126543	
1589.144	0.000931	-1.732525	2.928664	1.673824	2.801694	1.507454	-0.213108	0.127001	
1590.144	0.000320	-1.732647	2.928313	1.674068	2.801740	1.507637	-0.213062	0.127077	
1591.144	0.000671	-1.732555	2.928787	1.673930	2.802121	1.506996	-0.212589	0.126802	
1592.145	0.001770	-1.732937	2.929092	1.673824	2.802594	1.506355	-0.211978	0.126604	
1593.145	0.002502	-1.733013	2.929107	1.674022	2.802625	1.506126	-0.211887	0.126207	
1594.145	0.001221	-1.732692	2.929031	1.674190	2.802976	1.507210	-0.212772	0.126406	
1595.146	0.000351	-1.732570	2.928649	1.674281	2.802869	1.507652	-0.213184	0.126543	
1596.146	0.001114	-1.732799	2.928832	1.674342	2.803220	1.507179	-0.212619	0.126223	
1597.146	0.001495	-1.732921	2.929397	1.674190	2.803617	1.506035	-0.211734	0.126177	
1598.138	0.002502	-1.732692	2.929153	1.674114	2.803617	1.506508	-0.212177	0.126757	
1599.146	0.000473	-1.732631	2.929260	1.674266	2.803784	1.507545	-0.212985	0.126421	
1600.146	0.000061	-1.732525	2.929290	1.674525	2.803937	1.507652	-0.213520	0.126635	
1601.133	0.001709	-1.732723	2.929092	1.674281	2.804135	1.507042	-0.212207	0.126955	
1602.147	0.001892	-1.732921	2.929702	1.674205	2.804425	1.505928	-0.211536	0.126421	
1603.147	0.001221	-1.732982	2.929610	1.674220	2.804730	1.507149	-0.212192	0.126650	
1604.132	0.000305	-1.732723	2.929397	1.674525	2.804669	1.507484	-0.212680	0.126970	
1605.132	0.000122	-1.732601	2.929412	1.674388	2.804746	1.508339	-0.213031	0.127214	
1606.132	0.001434	-1.732601	2.929488	1.674587	2.805203	1.506813	-0.211917	0.127291	
1607.134	0.001846	-1.732906	2.929229	1.674220	2.805448	1.506203	-0.211505	0.126635	
1608.139	0.000610	-1.732616	2.929504	1.674495	2.805432	1.506630	-0.212299	0.127169	
1609.132	0.000351	-1.732357	2.929275	1.674678	2.805387	1.507637	-0.212848	0.127031	
1610.133	0.000671	-1.732723	2.929153	1.674709	2.805646	1.507606	-0.212879	0.127230	
1611.133	0.000580	-1.732814	2.929870	1.674480	2.806195	1.506538	-0.212146	0.127077	
1612.147	0.000900	-1.732799	2.929778	1.674358	2.806287	1.506264	-0.211521	0.126940	
1613.149	0.000687	-1.732692	2.929458	1.674434	2.806470	1.506859	-0.212177	0.127275	
1614.150	-0.000183	-1.732708	2.929626	1.674999	2.806623	1.507530	-0.212955	0.127306	
1615.150	-0.000473	-1.732555	2.929260	1.674907	2.806745	1.507728	-0.213031	0.127443	
1616.150	0.000839	-1.732845	2.929885	1.674846	2.807126	1.506721	-0.211856	0.126848	
1617.148	0.001114	-1.732799	2.929870	1.674709	2.807309	1.506477	-0.211612	0.126863	
1618.155	0.000519	-1.732601	2.929717	1.674663	2.807538	1.506630	-0.212390	0.127077	
1619.152	-0.000656	-1.732586	2.929839	1.674785	2.807263	1.507683	-0.213260	0.127337	
1620.153	-0.000656	-1.732647	2.929733	1.675044	2.807858	1.507896	-0.212985	0.127489	
1621.153	0.000732	-1.732738	2.929992	1.674937	2.808240	1.506431	-0.212024	0.127306	
1622.153	0.001404	-1.732830	2.929824	1.674815	2.808286	1.506584	-0.211627	0.127153	
1623.154	0.000443	-1.732860	2.929916	1.674861	2.808393	1.507011	-0.212238	0.127443	
1624.156	-0.000595	-1.732540	2.929855	1.675182	2.808515	1.507728	-0.213016	0.127153	
1625.154	-0.000763	-1.732586	2.929763	1.675227	2.808728	1.507164	-0.212558	0.127245	
1626.154	0.000946	-1.732860	2.930084	1.675090	2.809155	1.506325	-0.211994	0.126986	
1627.154	0.001221	-1.732769	2.930038	1.674999	2.809171	1.506264	-0.211475	0.126802	
1628.154	-0.000198	-1.732921	2.930175	1.675243	2.809445	1.507118	-0.212940	0.126772	
1629.157	-0.001465	-1.732509	2.929580	1.675441	2.809430	1.507851	-0.213336	0.127214	
1630.158	-0.000061	-1.732433	2.930145	1.675304	2.809705	1.507133	-0.212528	0.127260	
1631.158	0.000793	-1.732753	2.930129	1.675014	2.810040	1.506554	-0.211597	0.127275	
1632.158	0.001709	-1.732769	2.930404	1.674907	2.810285	1.506462	-0.212070	0.127260	
1633.159	-0.000427	-1.732799	2.930389	1.675426	2.810376	1.507545	-0.212650	0.127565	
1634.159	-0.000809	-1.732692	2.930160	1.675517	2.810559	1.507561	-0.213382	0.127581	
1635.159	0.000015	-1.732692	2.929839	1.675517	2.810697	1.506843	-0.212162	0.127352	
1636.159	-0.001282	-1.732708	2.930297	1.675197	2.810956	1.506431	-0.211551	0.127199	
1637.160	0.000198	-1.732631	2.930434	1.675121	2.811139	1.506645	-0.211872	0.126986	
1638.155	-0.000443	-1.732601	2.929931	1.675380	2.811185	1.507179	-0.212940	0.127489	
1639.160	-0.000854	-1.732525	2.930114	1.675594	2.811368	1.507393	-0.212802	0.127077	
1640.160	-0.000610	-1.732647	2.930236	1.675533	2.811734	1.507149	-0.212406	0.126879	
1641.160	0.000366	-1.733013	2.930587	1.675380	2.812039	1.506004	-0.211765	0.126741	
1642.161	0.000748	-1.732692	2.930587	1.675411	2.812146	1.506645	-0.212085	0.126619	
1643.161	-0.001144	-1.732540	2.930099	1.675548	2.812055	1.507240	-0.212573	0.126879	
1644.161	-0.000992	-1.732616	2.930206	1.675792	2.812390	1.507957	-0.213047	0.127047	
1645.161	0.000259	-1.732647	2.930694	1.675685	2.812711	1.506447	-0.211902	0.126757	
1646.162	0.000671	-1.732784	2.930892	1.675487	2.812894	1.506325	-0.211627	0.126711	
1647.162	0.000107	-1.732753	2.930679	1.675487	2.813001	1.506813	-0.212131	0.126772	
1648.155	-0.001694	-1.732631	2.930389	1.675914	2.813199	1.507667	-0.212985	0.127764	
1649.163	-0.001099	-1.732494	2.930526	1.675838	2.813291	1.507545	-0.212909	0.127016	
1650.163	-0.000198	-1.732677	2.930526	1.675609	2.813611	1.506599	-0.212100	0.126772	
1651.163	-0.001526	-1.732738	2.930953	1.675395	2.813931	1.506157	-0.211750	0.126802	
1652.163	-0.000443	-1.732814	2.930953	1.675411	2.814008	1.506920	-0.212467	0.126925	
1653.164	-0.001083	-1.732769	2.930785	1.675975	2.814389	1.507744	-0.213199	0.127047	
1654.164	-0.000885	-1.732479	2.930480	1.675822	2.814252	1.507606	-0.212848	0.127245	
1655.164	-0.000504	-1.732692	2.930862	1.675456	2.814694	1.506782	-0.211658	0.127016	
1656.165	0.000107	-1.732723	2.931503	1.675517	2.815076	1.506035	-0.211521	0.126955	
1657.165	-0.000870	-1.732525	2.930846	1.675884	2.815106	1.507316	-0.212360	0.127016	
1658.186	-0.001831	-1.732357	2.930419	1.676051	2.815015	1.507820	-0.213367	0.127581	
1659.187	-0.000549	-1.732738	2.930709	1.675914	2.815396	1.507439	-0.212604	0.127642	
1660.187	-0.000229	-1.732753	2.930740	1.675746	2.815732	1.506264	-0.212177	0.127291	
1661.186	0.000061	-1.732708	2.930907	1.675578	2.815930	1.506233	-0.211612	0.127489	
1662.183	0.000122	-1.732570	2.930740	1.675777	2.815900	1.507164	-0.212757	0.127581	
1663.183	-0.001663	-1.732616	2.930755	1.676204	2.815946	1.507637	-0.213230	0.127718	
1664.188	-0.001495	-1.732601	2.930785	1.676143	2.816434	1.506950	-0.212635	0.127535	
1665.188	-0.000671	-1.732906	2.930892	1.675884	2.816571	1.506477	-0.211994	0.127306	
1666.188	0.002182	-1.732891	2.931213	1.675914	2.817044	1.506157	-0.211780	0.127459	
1667.189	0.004120	-1.732769	2.930679	1.676311	2.817029	1.507271	-0.212833	0.127962	
1668.186	0.003616	-1.732402	2.930602	1.676128	2.817151	1.507744	-0.213443	0.127764	
1669.188	0.004028	-1.732586	2.930694	1.675975	2.817243	1.506904	-0.212573	0.127733	
1670.188	0.005264	-1.732937	2.930953	1.676051	2.817761	1.506462	-0.211765	0.127596	
1671.189	0.005539	-1.732906	2.930877	1.675929	2.817929	1.506142	-0.211948	0.127230	
1672.189	0.004425	-1.732677	2.931045	1.675822	2.818036	1.507393	-0.212497	0.127611	
1673.189	0.003555	-1.732479	2.930846	1.676143	2.817945	1.507484	-0.213016	0.127626	
1674.190	0.004440	-1.732525	2.931014	1.676082	2.818311	1.507103	-0.212604	0.127520	
1675.112	0.005585	-1.732845	2.931136	1.675792	2.818677	1.506523	-0.211460	0.126818	
